Jaz Data File
++++++++++++++++++++++++++++++++++++
Date: Mon Apr 22 19:26:04 2019
User: jaz
Dark Spectrum Present: Yes
Reference Spectrum Present: Yes
Processed Spectrum Present: Yes
Spectrometers: JAZA2928
Integration Time (usec): 40000 (JAZA2928)
Spectra Averaged: 10 (JAZA2928)
Boxcar Smoothing: 5 (JAZA2928)
Correct for Electrical Dark: No (JAZA2928)
Strobe/Lamp Enabled: Yes (JAZA2928)
Correct for Detector Non-linearity: No (JAZA2928)
Correct for Stray Light: No (JAZA2928)
Number of Pixels in Processed Spectrum: 2048
>>>>>Begin Processed Spectral Data<<<<<
W	D	R	S	P
190.104553	0.000000	0.000000	0.000000	0.000000
190.488098	0.000000	0.000000	0.000000	0.000000
190.871613	1077.423828	1084.994751	1050.216064	-359.371826
191.255096	1080.499390	1079.079956	1061.808960	1316.752686
191.638535	0.000000	0.000000	0.000000	0.000000
192.021942	903.294739	908.865295	896.777893	-116.987335
192.405334	1004.317993	1010.039124	997.607605	-117.291298
192.788696	1107.599609	1112.288330	1097.125366	-223.392349
193.172012	1111.471069	1116.052246	1103.147583	-181.688828
193.555313	1116.138306	1118.654663	1110.911865	-207.698654
193.938568	1122.375488	1122.956299	1114.030396	-1436.801147
194.321793	1125.386597	1126.505127	1117.686890	-688.377197
194.704987	1126.655640	1129.473267	1120.224731	-228.238449
195.088150	1127.429810	1129.387207	1121.386230	-308.755859
195.471298	1126.505249	1131.710083	1123.128418	-64.878746
195.854401	1127.494629	1132.054199	1123.214478	-93.871811
196.237457	1129.064575	1128.957031	1125.494263	3319.863770
196.620499	1129.043091	1130.441040	1126.999878	-146.157883
197.003494	1127.171875	1130.140137	1129.430298	76.085709
197.386475	1126.999878	1131.129395	1128.677612	40.627865
197.769424	1126.419067	1132.441406	1125.042725	-22.853958
198.152344	1123.365112	1134.527832	1128.462524	45.664608
198.535217	1120.934570	1135.947266	1124.784668	25.645613
198.918076	1121.149658	1138.098022	1125.408325	25.127304
199.300903	1121.838013	1139.668091	1123.752197	10.735704
199.683670	1123.838257	1144.421387	1122.633789	-5.851723
200.066422	1123.730591	1145.023560	1121.816406	-8.989750
200.449142	1121.967041	1147.884277	1123.171509	4.647362
200.831848	1122.719849	1149.174683	1123.773804	3.983979
201.214508	1123.537109	1149.002686	1123.859863	1.267413
201.597137	1122.891846	1150.120972	1124.827637	7.109266
201.979736	1122.612183	1152.874146	1126.204224	11.869822
202.362274	1122.633789	1149.088623	1122.719849	0.325308
202.744827	1121.257202	1147.625977	1125.300903	15.335188
203.127319	1119.171021	1146.055908	1125.150269	22.240183
203.509796	1116.525513	1142.786621	1124.483643	30.303862
203.892227	1113.406860	1136.872070	1123.386597	42.529926
204.274643	1110.567749	1137.151489	1123.881348	50.081738
204.657013	1110.804321	1134.850342	1122.719727	49.552505
205.039352	1108.223389	1132.441406	1121.364746	54.262730
205.421661	1104.932617	1135.796753	1119.343018	46.689793
205.803940	1103.964722	1135.516968	1117.579468	43.149849
206.186188	1103.771118	1133.344727	1116.181396	41.964031
206.568405	1101.921387	1134.248169	1114.460815	38.789597
206.950592	1103.297974	1136.119263	1113.836914	32.110073
207.332748	1101.340698	1133.882446	1110.589111	28.420149
207.714859	1099.964233	1136.269775	1109.470825	26.184961
208.096939	1099.598511	1137.732422	1110.180542	27.749662
208.478989	1098.695190	1137.280762	1107.986816	24.080572
208.861008	1098.931763	1138.291626	1107.276978	21.202347
209.243011	1099.318848	1140.765137	1105.169312	14.115772
209.624969	1098.652222	1139.410034	1106.137207	18.364542
210.006897	1098.480103	1140.377808	1106.352295	18.789078
210.388794	1097.469238	1141.345703	1106.115479	19.705872
210.770645	1097.426270	1141.603882	1106.782227	21.178051
211.152481	1097.146606	1140.549927	1108.115723	25.272528
211.534286	1097.404785	1143.152344	1109.750366	26.986317
211.916061	1097.490723	1141.238159	1109.019165	26.352270
212.297791	1097.985474	1142.119995	1108.417114	23.636011
212.679489	1097.125122	1143.195435	1109.126831	26.050852
213.061157	1093.662354	1142.313599	1108.997559	31.520683
213.442795	1093.812988	1142.786743	1108.653442	30.302872
213.824402	1094.071167	1142.829712	1109.427734	31.495131
214.205963	1094.823730	1141.496216	1110.395630	33.364197
214.587524	1093.705444	1141.195190	1111.427856	37.318398
214.969025	1094.952881	1142.937378	1111.535522	34.558331
215.350510	1093.554932	1145.948486	1109.492310	30.418585
215.731949	1092.823730	1144.572021	1110.524780	34.206059
216.113358	1092.221558	1147.841309	1112.309937	36.117348
216.494736	1093.361328	1147.239014	1113.234741	36.886166
216.876083	1093.124878	1145.324707	1115.901611	43.633732
217.257401	1094.823975	1146.765747	1116.159912	41.076645
217.638702	1094.910034	1149.389771	1118.826782	43.900265
218.019943	1095.791748	1151.841553	1119.063354	41.519512
218.401169	1094.006592	1152.142700	1121.450806	47.206829
218.782349	1094.372070	1154.788208	1123.988770	49.021172
219.163498	1094.436646	1158.272583	1125.859863	49.224964
219.544632	1098.286621	1158.659668	1128.118286	49.412224
219.925705	1102.416138	1162.423584	1126.827759	40.680988
220.306778	1103.104370	1163.929199	1125.666260	37.093224
220.687805	1101.082520	1168.661011	1126.203979	37.173752
221.068802	1101.770996	1176.640503	1123.709106	29.301796
221.449738	1101.985840	1182.598145	1124.547974	27.988449
221.830673	1099.340454	1186.620117	1126.956909	31.641340
222.211563	1098.394043	1191.932617	1128.010742	31.662552
222.592438	1098.759766	1200.084106	1127.537476	28.401577
222.973267	1099.060913	1206.730225	1126.031982	25.049913
223.354065	1097.727417	1211.655518	1128.204346	26.751020
223.734848	1093.791382	1217.828369	1127.430054	27.119871
224.115555	1090.436157	1228.302734	1130.677734	29.188784
224.496262	1092.694458	1238.497559	1133.559692	28.027685
224.876923	1092.178223	1246.498535	1136.119385	28.473997
225.257568	1091.016846	1255.639526	1140.915527	30.310940
225.638168	1088.113281	1265.554688	1146.314087	32.800014
226.018723	1090.479248	1277.147583	1150.379028	32.088882
226.399277	1092.328735	1291.923462	1156.014160	31.907368
226.779785	1094.759277	1309.861206	1163.305420	31.866819
227.160263	1093.726929	1333.046875	1173.005493	33.126602
227.540695	1093.103149	1363.351685	1182.619751	33.123806
227.921112	1091.984741	1408.217529	1197.976440	33.516987
228.301483	1092.501099	1466.525879	1218.645630	33.726250
228.681824	1092.006348	1543.460083	1246.842773	34.297295
229.062134	1095.339966	1631.212891	1277.728271	34.035740
229.442413	1095.404419	1713.438232	1307.366333	34.296169
229.822647	1099.469604	1782.349976	1330.422974	33.820473
230.202881	1100.846069	1832.011841	1348.210083	33.831455
230.583054	1100.674072	1871.651245	1360.340576	33.680180
230.963196	1098.372681	1904.106934	1370.664429	33.794239
231.343292	1097.576782	1930.819946	1380.902222	34.002731
231.723404	1097.146606	1946.348755	1385.612427	33.969040
232.103439	1098.372681	1940.670654	1386.515747	34.209160
232.483459	1098.630737	1913.054321	1377.740601	34.270847
232.863434	1096.802612	1867.650757	1361.200806	34.299648
233.243393	1091.662109	1814.934814	1340.918823	34.462341
233.623306	1092.909668	1767.294434	1324.207153	34.297554
234.003174	1092.242920	1737.763672	1312.678833	34.148540
234.383041	1089.382324	1724.880371	1305.968262	34.081291
234.762848	1090.930786	1717.675293	1304.462646	34.070000
235.142639	1091.855591	1711.932495	1303.043213	34.058296
235.522385	1094.135498	1708.491089	1297.795166	33.150127
235.902115	1095.834839	1710.212036	1293.816284	32.224739
236.281799	1095.641113	1716.384766	1293.084961	31.807631
236.661438	1096.178833	1729.009888	1293.235474	31.138903
237.041077	1095.576660	1740.946899	1297.322144	31.260426
237.420654	1098.458618	1747.033569	1301.602173	31.321524
237.800217	1097.963989	1755.550659	1302.225830	31.062346
238.179733	1098.351074	1761.530029	1303.688354	30.962574
238.559219	1100.372925	1769.509644	1305.882080	30.712582
238.938690	1098.265137	1782.220703	1308.592163	30.751562
239.318100	1096.630493	1800.158325	1310.656982	30.421894
239.697510	1097.017578	1821.687988	1316.593262	30.300076
240.076859	1097.168091	1847.260986	1329.067993	30.916157
240.456177	1098.178955	1891.976440	1340.273682	30.498299
240.835464	1096.651855	1948.263184	1356.168213	30.473568
241.214722	1097.275757	2024.745728	1378.256836	30.295437
241.593948	1097.963989	2132.092285	1405.808594	29.768513
241.973129	1097.856567	2259.333740	1442.479736	29.671110
242.352295	1097.297363	2406.750000	1481.903931	29.371552
242.731415	1097.856323	2553.327148	1521.242188	29.089272
243.110519	1095.877686	2674.417480	1553.246094	28.974146
243.489578	1095.877686	2769.440186	1580.152710	28.936775
243.868607	1096.049805	2835.943115	1598.886230	28.900417
244.247604	1097.684448	2886.035156	1608.715576	28.575554
244.626541	1098.910278	2917.953125	1616.372314	28.446941
245.005493	1099.792114	2945.719727	1626.954346	28.558121
245.384369	1100.114868	2970.948975	1631.514038	28.404398
245.763229	1100.609497	2998.909180	1640.611816	28.446632
246.142059	1102.760254	3052.937500	1652.484375	28.188417
246.520859	1102.351685	3154.261475	1682.143799	28.256220
246.899612	1100.889038	3308.366943	1724.084473	28.231104
247.278336	1101.942993	3494.518799	1775.617676	28.156881
247.657043	1102.394653	3664.540039	1821.666504	28.073029
248.035690	1101.405273	3803.309570	1861.004761	28.113485
248.414322	1100.867676	3921.002197	1893.395996	28.102501
248.792908	1099.297607	4008.367432	1919.657349	28.200071
249.171478	1099.835205	4061.642822	1930.712524	28.053049
249.550003	1101.104126	4068.827148	1934.884766	28.094961
249.928482	1100.588013	4035.661621	1924.238281	28.062336
250.306961	1099.620117	3942.724854	1898.966309	28.115257
250.685364	1099.362061	3780.747803	1852.681152	28.094395
251.063782	1100.652466	3577.324951	1795.469604	28.054462
251.442123	1101.168701	3379.536865	1740.301514	28.052217
251.820450	1102.416138	3241.261963	1701.931274	28.029844
252.198761	1102.201050	3168.177490	1682.961304	28.110689
252.576996	1101.276245	3111.740479	1668.464844	28.211823
252.955246	1101.921509	3063.153809	1654.527466	28.176466
253.333420	1101.039673	3017.792969	1644.332764	28.344446
253.711578	1100.437500	2990.306152	1632.567627	28.156990
254.089706	1100.308472	2965.872803	1625.039917	28.127224
254.467804	1098.716675	2948.537354	1620.566284	28.210821
254.845871	1099.856567	2933.202148	1614.501099	28.071333
255.223877	1098.996338	2907.005371	1605.274170	28.001953
255.601898	1100.480347	2870.334229	1592.584351	27.804781
255.979828	1098.265137	2818.026367	1578.754761	27.939322
256.357727	1098.630737	2763.826172	1560.322266	27.725967
256.735657	1098.480225	2741.457764	1551.891113	27.596901
257.113525	1098.071411	2758.492432	1556.795044	27.626947
257.491333	1098.480347	2812.197754	1569.914917	27.509470
257.869110	1097.835083	2891.799072	1590.003418	27.434683
258.246887	1097.684448	3007.146729	1622.351440	27.477211
258.624573	1097.232788	3174.092285	1665.346069	27.354441
259.002289	1097.275757	3402.142090	1728.321533	27.378847
259.379944	1098.566284	3704.265625	1810.374878	27.317373
259.757538	1098.415649	4068.052490	1908.752686	27.287413
260.135162	1099.318970	4428.032715	2001.947144	27.116425
260.512665	1100.760010	4715.939453	2080.773926	27.108307
260.890228	1099.792114	4904.715332	2130.479004	27.088243
261.267700	1101.147095	5016.622070	2157.880371	26.988634
261.645142	1101.942871	5083.039063	2170.828125	26.849018
262.022552	1103.211914	5120.677734	2180.312988	26.810461
262.399994	1102.717285	5125.904297	2178.592285	26.741859
262.777313	1103.857178	5080.715820	2165.881104	26.705095
263.154602	1104.911011	4961.216309	2131.747803	26.627478
263.531921	1102.824707	4760.159180	2076.171143	26.613546
263.909149	1102.459106	4480.791504	2000.979248	26.596558
264.286377	1101.491333	4192.583984	1924.410278	26.622267
264.663574	1099.878174	3972.277100	1862.273560	26.542114
265.040710	1101.921509	3845.767090	1823.731201	26.306498
265.417816	1099.168457	3795.782227	1807.492676	26.267174
265.794891	1099.340576	3797.803955	1809.686646	26.324095
266.171936	1099.104004	3841.508057	1820.784790	26.315626
266.548950	1099.921265	3899.708740	1830.893433	26.108130
266.925934	1101.383789	3954.425049	1838.077271	25.821341
267.302887	1100.329834	4020.368896	1851.498169	25.724598
267.679810	1102.308594	4091.776367	1868.166870	25.618549
268.056671	1102.652710	4176.216797	1886.749878	25.511009
268.433502	1101.749512	4266.658203	1905.741455	25.403322
268.810333	1101.684814	4350.517578	1923.485596	25.295263
269.187073	1099.039429	4426.677734	1942.477295	25.346441
269.563843	1101.362305	4488.276855	1957.167236	25.267981
269.940521	1100.588013	4541.895996	1965.791870	25.141714
270.317200	1099.899780	4605.710449	1972.997192	24.904295
270.693848	1099.146973	4713.035645	2001.624268	24.972471
271.070435	1097.705933	4884.304199	2045.629761	25.033653
271.447021	1095.856323	5082.371582	2088.495361	24.899920
271.823547	1093.920532	5251.705078	2126.327881	24.830708
272.200043	1092.931152	5382.043457	2154.804443	24.757414
272.576538	1096.501465	5496.100098	2182.700684	24.688599
272.952972	1096.630493	5606.415527	2207.520996	24.632893
273.329346	1099.641602	5698.835449	2228.641602	24.547781
273.705688	1097.490723	5766.155762	2242.858643	24.533092
274.082062	1094.221558	5809.837891	2252.859619	24.570236
274.458344	1094.049438	5806.568848	2254.386719	24.622440
274.834595	1093.060059	5748.755371	2233.782227	24.501650
275.210846	1093.748413	5652.141113	2207.563721	24.434387
275.587006	1095.361572	5538.041016	2181.603760	24.450157
275.963165	1096.135864	5473.688965	2166.612549	24.453768
276.339294	1095.920898	5444.265625	2159.622070	24.462210
276.715393	1094.329224	5440.265137	2155.492676	24.417374
277.091461	1093.942017	5437.361816	2151.728760	24.353775
277.467438	1092.931152	5444.867676	2151.900879	24.333300
277.843445	1094.372192	5460.289551	2156.052246	24.317455
278.219452	1097.361816	5481.604004	2161.924072	24.281557
278.595337	1097.275757	5513.521484	2168.827881	24.263870
278.971191	1097.318726	5547.805664	2178.334717	24.289837
279.347046	1096.716553	5572.969727	2183.776123	24.285034
279.722870	1095.727051	5607.189453	2189.067383	24.234720
280.098663	1096.953125	5631.234863	2191.260742	24.134090
280.474396	1098.222168	5683.004883	2200.982666	24.052624
280.850098	1099.727539	5749.679688	2213.908691	23.961132
281.225800	1099.770630	5852.595703	2236.987061	23.927168
281.601440	1099.125488	5983.816895	2266.496094	23.898554
281.977051	1098.996338	6153.665527	2303.124268	23.822092
282.352600	1100.265503	6314.695801	2337.128662	23.720007
282.728149	1102.996948	6448.454590	2365.304199	23.614578
283.103668	1104.007935	6547.198242	2384.768555	23.529594
283.479156	1102.588379	6633.079590	2404.341064	23.537741
283.854553	1102.502319	6720.380859	2424.773438	23.536840
284.229950	1098.480347	6819.877930	2446.152588	23.554949
284.605347	1096.501587	6916.750000	2468.520996	23.573210
284.980652	1094.888428	7007.728516	2490.179443	23.597647
285.355988	1092.500977	7095.331055	2507.837646	23.577824
285.731201	1094.243042	7173.210938	2525.345215	23.541861
286.106445	1094.888428	7234.551758	2535.583008	23.465368
286.481659	1094.802368	7309.464355	2552.531250	23.456285
286.856781	1091.490112	7380.248047	2567.372070	23.468576
287.231934	1093.942017	7436.878418	2581.373779	23.450207
287.607025	1097.254272	7468.667480	2585.782959	23.362616
287.982056	1100.114868	7471.699707	2583.416992	23.279955
288.357086	1103.577637	7457.009766	2579.158447	23.224939
288.732086	1104.201294	7427.049805	2569.630371	23.176722
289.107025	1104.373413	7399.476563	2559.435547	23.114191
289.481934	1106.137085	7369.988770	2553.133789	23.100750
289.856842	1104.395020	7367.579590	2546.896240	23.031433
290.231659	1103.276611	7383.409668	2547.304932	22.993595
290.606506	1102.717407	7399.583984	2548.488037	22.960159
290.981262	1104.029419	7420.532715	2552.617432	22.933384
291.355988	1103.341064	7460.408203	2561.156006	22.932192
291.730713	1101.276245	7499.531250	2570.017334	22.955339
292.105377	1100.996582	7523.040527	2574.749023	22.948339
292.480011	1102.115112	7531.126953	2579.437744	22.979000
292.854614	1101.340698	7544.418945	2586.944336	23.057360
293.229187	1102.093628	7573.949707	2602.989258	23.191116
293.603729	1104.115356	7617.632324	2619.227783	23.261049
293.978241	1103.771240	7652.840332	2639.811035	23.454321
294.352692	1101.964478	7681.683105	2665.663818	23.765444
294.727081	1101.061035	7708.525391	2687.558838	24.010691
295.101501	1098.609253	7761.865234	2718.315430	24.308029
295.475830	1095.512085	7848.133301	2752.534912	24.538958
295.850189	1095.038940	7991.893555	2806.390869	24.813513
296.224457	1091.683716	8203.381836	2877.646973	25.113035
296.598694	1089.403809	8463.350586	2960.281006	25.371450
296.972931	1089.016602	8729.597656	3047.259521	25.629503
297.347107	1088.586426	8935.946289	3114.450684	25.815870
297.721283	1087.898071	9061.037109	3163.381348	26.030945
298.095367	1089.769409	9098.051758	3189.857666	26.223955
298.469452	1092.737427	9080.931641	3195.643066	26.325171
298.843475	1092.199707	9037.636719	3193.299072	26.444101
299.217529	1094.587158	8972.337891	3188.674805	26.582304
299.591492	1096.436890	8892.672852	3177.748535	26.696363
299.965424	1098.135864	8774.442383	3156.477295	26.814215
300.339325	1102.179565	8594.958008	3119.526367	26.923882
300.713196	1103.513062	8374.263672	3064.293701	26.968063
301.087036	1105.448730	8138.126465	3002.694580	26.977573
301.460815	1104.975586	7937.585938	2952.344238	27.037523
301.834564	1103.771118	7774.533203	2914.017090	27.137018
302.208282	1103.125854	7649.119141	2878.851318	27.126907
302.582001	1103.297974	7531.814453	2845.965820	27.108398
302.955658	1103.297974	7423.306641	2820.607666	27.172585
303.329254	1100.889038	7332.241699	2792.109619	27.140505
303.702820	1101.276245	7248.747070	2773.892334	27.208199
304.076416	1100.910645	7176.007813	2752.147461	27.180418
304.449921	1099.491089	7122.452637	2731.757813	27.100733
304.823395	1099.749146	7062.165527	2718.874512	27.155523
305.196838	1099.426636	7003.878418	2701.754150	27.137617
305.570251	1097.921021	6932.858887	2683.622803	27.175983
305.943604	1096.479980	6870.485840	2663.491211	27.139065
306.316986	1096.350952	6825.146973	2653.038330	27.173029
306.690277	1094.759399	6800.218750	2647.532227	27.215561
307.063507	1094.200073	6800.971680	2647.145264	27.212324
307.436768	1095.038940	6830.372070	2655.856201	27.214066
307.809937	1092.328979	6880.078125	2666.782227	27.203205
308.183136	1093.081665	6951.484375	2684.182129	27.159286
308.556244	1091.640747	7039.259277	2710.142334	27.212599
308.929321	1092.802002	7145.702637	2735.930420	27.146133
309.302399	1091.963379	7244.488770	2762.105713	27.145639
309.675446	1093.597778	7353.104492	2786.345215	27.042824
310.048401	1095.167969	7449.568359	2813.208740	27.037024
310.421356	1093.662354	7553.624512	2838.674072	27.012724
310.794281	1094.049438	7670.606445	2867.452148	26.965519
311.167145	1096.264771	7784.168945	2894.401611	26.886402
311.539978	1100.437378	7864.242676	2915.221436	26.830814
311.912781	1102.588135	7910.098145	2926.943359	26.799156
312.285553	1101.147095	7899.667480	2922.405273	26.789038
312.658295	1102.308472	7851.940430	2908.833740	26.764797
313.031006	1101.254639	7786.728027	2891.799072	26.782612
313.403656	1101.792358	7728.354980	2871.667725	26.708801
313.776276	1101.663208	7684.435547	2859.214600	26.699257
314.148865	1102.029053	7688.415527	2856.009766	26.630394
314.521454	1105.040161	7694.351563	2858.031494	26.603558
314.893982	1103.147583	7677.596680	2854.375244	26.636873
315.266449	1101.018311	7620.212891	2835.340820	26.603325
315.638885	1095.899292	7539.772949	2808.347900	26.574833
316.011322	1094.544189	7452.429199	2781.656738	26.535751
316.383667	1094.759277	7385.065430	2760.234619	26.476856
316.756042	1094.458130	7327.316895	2745.867432	26.495214
317.128326	1094.049561	7277.848145	2729.478271	26.446991
317.500610	1094.329102	7220.959473	2716.379639	26.475410
317.872833	1094.157104	7145.443848	2697.151367	26.490139
318.245087	1094.608643	7047.453613	2669.750244	26.460318
318.617218	1093.468872	6948.925293	2643.230713	26.466969
318.989319	1094.780762	6877.604980	2623.873779	26.441977
319.361420	1097.684448	6835.212402	2616.990967	26.480160
319.733490	1100.889160	6807.423828	2611.205322	26.466433
320.105530	1099.792114	6786.690430	2602.193604	26.418644
320.477509	1100.566528	6764.343750	2598.752197	26.452059
320.849457	1101.512817	6742.125488	2591.676025	26.418463
321.221375	1099.899780	6731.974609	2588.514404	26.431017
321.593231	1100.200806	6729.565430	2586.342041	26.399803
321.965088	1100.802979	6731.823242	2588.729492	26.423746
322.336884	1102.459106	6746.857422	2591.202881	26.375597
322.708618	1100.265381	6786.432617	2597.590820	26.332773
323.080414	1101.254761	6844.159668	2606.559570	26.211557
323.452118	1102.179565	6947.871582	2626.002686	26.067455
323.823761	1099.899658	7085.007324	2657.597900	26.026237
324.195343	1102.846313	7229.239258	2694.570313	25.981421
324.566925	1101.061035	7372.160645	2726.574219	25.920704
324.938507	1099.189941	7509.081055	2754.125977	25.818474
325.310059	1099.964355	7620.814453	2776.559082	25.711290
325.681519	1099.663208	7736.399902	2801.637695	25.644749
326.052948	1098.802856	7852.091797	2822.736816	25.527323
326.424408	1094.458130	7916.723145	2840.610107	25.594900
326.795776	1097.275757	7936.703613	2843.104980	25.525955
327.167084	1095.705688	7906.787109	2835.534180	25.544085
327.538391	1093.490356	7825.529785	2814.907959	25.570520
327.909668	1095.296997	7721.903320	2787.076416	25.530102
328.280884	1095.813232	7621.073730	2759.115967	25.490211
328.652100	1096.802734	7529.922363	2735.693604	25.475834
329.023254	1097.856445	7453.332520	2719.111084	25.509571
329.394348	1098.200562	7390.443359	2701.646729	25.482904
329.765442	1097.834839	7310.196777	2687.042725	25.581381
330.136475	1098.351074	7226.937988	2669.448975	25.635565
330.507538	1099.878174	7159.510742	2651.640381	25.608189
330.878479	1097.619873	7106.687500	2639.638916	25.661537
331.249420	1098.673706	7078.705078	2629.766602	25.603426
331.620331	1097.168091	7080.082520	2630.949707	25.636028
331.991211	1096.092896	7099.223633	2635.832031	25.648935
332.362030	1094.716309	7135.120605	2645.596680	25.675108
332.732819	1093.877441	7177.190430	2656.329102	25.684223
333.103577	1092.888184	7218.851074	2665.125977	25.665154
333.474304	1093.103271	7245.328125	2675.256348	25.716764
333.845001	1093.103271	7266.728516	2677.579102	25.665243
334.215668	1095.318481	7282.107422	2683.171387	25.665218
334.586273	1096.221802	7310.819824	2687.795654	25.610245
334.956818	1097.490845	7336.048340	2694.419922	25.597729
335.327362	1096.437012	7358.523926	2704.464355	25.678778
335.697876	1099.534058	7373.127930	2707.604248	25.632360
336.068329	1099.964355	7380.677734	2712.809082	25.679323
336.438751	1099.964233	7374.892578	2712.722900	25.701628
336.809174	1103.233521	7369.923828	2714.056641	25.704527
337.179504	1103.018433	7381.000000	2719.175537	25.743259
337.549896	1103.469971	7413.283203	2730.230713	25.781439
337.920135	1105.814331	7465.849609	2743.716309	25.753033
338.290375	1104.115234	7520.394043	2757.008057	25.760925
338.660614	1103.835815	7566.679688	2766.945068	25.733397
339.030792	1104.975708	7605.523438	2777.096680	25.722771
339.400940	1107.556641	7646.431152	2785.441650	25.660151
339.771027	1106.309204	7679.596680	2795.142090	25.692362
340.141083	1106.825317	7714.590820	2804.906738	25.698269
340.511139	1107.965210	7751.798828	2817.854492	25.736486
340.881134	1105.642456	7796.600098	2828.307373	25.746164
341.251068	1105.599243	7825.829590	2837.556152	25.772284
341.621002	1104.373291	7840.841797	2841.384521	25.785189
341.990875	1101.233154	7849.101563	2844.503174	25.834381
342.360718	1099.964233	7858.995117	2845.363525	25.823219
342.730560	1100.136230	7879.062012	2855.128174	25.888939
343.100311	1097.834961	7921.325195	2869.215820	25.960041
343.470032	1097.383301	7984.279297	2890.831299	26.041456
343.839752	1097.125122	8068.074707	2915.049316	26.078573
344.209442	1098.028564	8161.526855	2939.568604	26.071218
344.579041	1096.523071	8264.938477	2966.604004	26.087786
344.948639	1095.813232	8365.853516	2995.510986	26.130499
345.318176	1098.845825	8455.262695	3020.890625	26.127459
345.687714	1098.286621	8552.909180	3046.398682	26.132940
346.057190	1098.200562	8625.068359	3067.648682	26.165573
346.426636	1100.136230	8678.581055	3085.479004	26.197231
346.796051	1099.297363	8703.013672	3095.824219	26.257250
347.165405	1099.985596	8698.797852	3095.673584	26.263157
347.534729	1099.598633	8657.610352	3085.328125	26.273172
347.904083	1099.770752	8593.752930	3069.433838	26.283262
348.273315	1099.211426	8511.786133	3050.033691	26.317741
348.642517	1099.491089	8436.227539	3034.010254	26.367571
349.011719	1099.749146	8361.422852	3015.793213	26.385708
349.380890	1096.781006	8308.834961	3003.060303	26.431850
349.749969	1097.942505	8260.614258	2994.586182	26.479555
350.119049	1101.147217	8238.375977	2990.263184	26.468481
350.488098	1102.308716	8235.384766	2989.058594	26.450718
350.857117	1103.534668	8238.632813	2990.284424	26.443220
351.226074	1102.179565	8268.012695	2997.403809	26.448067
351.595001	1102.910889	8313.008789	3010.889160	26.462585
351.963867	1102.910889	8365.336914	3026.847900	26.491657
352.332764	1099.813721	8432.206055	3044.527588	26.522228
352.701538	1099.146973	8501.246094	3060.572510	26.498234
353.070343	1100.738525	8591.322266	3086.554443	26.510830
353.439056	1100.867676	8685.075195	3114.256836	26.547127
353.807770	1101.233276	8792.744141	3141.894531	26.531345
354.176453	1100.243896	8898.822266	3174.242920	26.594580
354.545105	1096.781128	9022.581055	3212.118652	26.689260
354.913666	1096.931641	9173.868164	3255.822754	26.729084
355.282227	1098.652344	9334.511719	3302.086670	26.754152
355.650757	1095.770264	9501.285156	3350.888428	26.829031
356.019226	1095.899292	9686.339844	3403.625732	26.863892
356.387695	1097.275757	9897.461914	3462.235352	26.873970
356.756104	1097.727417	10147.257813	3534.566650	26.927799
357.124451	1096.458496	10424.130859	3607.780273	26.923351
357.492828	1095.856201	10681.905273	3677.294434	26.929115
357.861084	1096.716553	10896.963867	3741.302246	26.984888
358.229401	1096.436890	11065.134766	3788.534180	27.005503
358.597595	1100.028687	11179.878906	3825.742920	27.041218
358.965759	1098.308105	11285.785156	3854.434570	27.054064
359.333923	1097.576904	11397.927734	3889.084229	27.101089
359.702057	1099.770630	11556.829102	3932.186035	27.086159
360.070129	1098.329590	11736.874023	3982.794434	27.113340
360.438141	1100.695435	11947.889648	4048.630615	27.176935
360.806122	1102.717163	12195.875977	4118.703613	27.187803
361.174133	1104.502441	12475.975586	4204.478027	27.260986
361.542053	1106.201660	12787.734375	4295.478516	27.301868
361.909912	1104.782104	13059.295898	4375.251953	27.357615
362.277771	1104.072266	13289.452148	4437.926270	27.359459
362.645599	1102.523560	13435.535156	4473.715332	27.334702
363.013367	1101.684937	13487.328125	4492.190918	27.374483
363.381134	1101.878540	13454.527344	4487.609375	27.408947
363.748810	1100.824707	13341.522461	4460.036133	27.442974
364.116455	1101.792480	13151.778320	4410.029785	27.454283
364.484100	1100.136353	12877.100586	4333.676270	27.456482
364.851715	1097.426270	12500.042969	4227.857422	27.453619
365.219238	1095.641113	12017.209961	4096.400391	27.475534
365.586761	1094.071167	11496.714844	3954.274902	27.494968
365.954224	1092.587036	11045.755859	3827.699951	27.479818
366.321686	1092.113770	10687.518555	3732.505371	27.517252
366.689117	1093.275269	10452.758789	3674.649170	27.580305
367.056458	1096.824097	10290.286133	3630.406982	27.558531
367.423737	1097.533936	10172.636719	3596.875732	27.540646
367.791077	1098.630859	10063.891602	3565.645996	27.517494
368.158295	1099.362061	9978.162109	3541.729004	27.507851
368.525543	1099.899658	9899.936523	3521.748291	27.520891
368.892700	1102.222534	9826.788086	3506.004639	27.551886
369.259827	1103.233521	9775.147461	3488.131104	27.501396
369.626953	1104.567017	9742.949219	3474.688232	27.437096
369.994019	1105.083130	9712.256836	3470.149902	27.477858
370.361053	1105.814453	9696.125977	3465.224854	27.465946
370.728027	1104.201294	9690.146484	3461.052490	27.450106
371.094971	1102.545166	9704.665039	3464.687500	27.460001
371.461914	1099.792114	9732.152344	3468.171875	27.436064
371.828796	1099.964355	9764.951172	3479.528076	27.461828
372.195618	1099.383545	9808.225586	3490.604492	27.457394
372.562408	1099.598633	9839.046875	3500.734375	27.474684
372.929199	1098.867310	9875.116211	3511.015625	27.484959
373.295898	1096.544434	9908.454102	3526.178711	27.572163
373.662598	1097.576782	9953.125977	3539.126709	27.570847
374.029236	1098.093018	9996.227539	3548.826660	27.542105
374.395844	1098.802856	10033.027344	3562.075928	27.571199
374.762421	1100.566528	10077.097656	3576.593506	27.583338
375.128967	1099.555542	10134.545898	3595.800537	27.628643
375.495483	1103.448608	10215.415039	3623.868164	27.660542
375.861908	1101.125854	10344.572266	3660.066406	27.683836
376.228333	1100.609497	10513.862305	3712.696777	27.749041
376.594727	1098.265137	10751.439453	3779.780273	27.778585
376.961090	1097.770386	11016.181641	3855.316162	27.802296
377.327393	1101.211792	11269.352539	3926.959961	27.790215
377.693665	1099.620117	11461.527344	3990.817139	27.902170
378.059906	1100.243896	11601.781250	4037.188477	27.966806
378.426086	1101.190186	11685.490234	4066.783447	28.018795
378.792267	1100.781494	11717.967773	4081.925049	28.078470
379.158386	1100.200806	11706.439453	4085.409912	28.145784
379.524445	1098.006958	11674.457031	4080.161133	28.196175
379.890503	1099.964233	11605.610352	4065.880371	28.231638
380.256531	1100.996582	11494.047852	4043.748535	28.314611
380.622467	1102.953857	11331.468750	4004.754639	28.369719
380.988403	1103.255005	11130.669922	3956.726807	28.456703
381.354279	1101.104126	10936.257813	3911.603027	28.576057
381.720154	1099.426636	10784.260742	3872.845459	28.636721
382.085968	1100.738525	10692.442383	3853.122559	28.695465
382.451752	1099.491089	10663.148438	3849.165039	28.751280
382.817474	1100.028809	10677.924805	3860.026611	28.816326
383.183197	1101.512939	10747.503906	3884.287598	28.849028
383.548859	1101.211792	10817.749023	3917.775635	28.987322
383.914490	1099.491211	10895.329102	3949.779785	29.096935
384.280060	1099.276123	10966.520508	3981.181396	29.206791
384.645599	1098.802856	11036.163086	4013.335938	29.329048
385.011108	1096.781128	11120.754883	4048.437256	29.445971
385.376617	1095.426147	11219.089844	4082.936035	29.510162
385.742035	1095.684082	11332.500977	4125.650879	29.598722
386.107452	1093.361328	11437.826172	4168.796387	29.730247
386.472778	1093.210815	11530.417969	4205.273926	29.817009
386.838135	1090.823364	11626.559570	4246.698242	29.954004
387.203430	1090.328735	11692.825195	4276.551270	30.051628
387.568634	1089.446777	11741.561523	4302.167480	30.160400
387.933838	1091.296509	11771.308594	4325.891113	30.286434
388.299042	1091.855713	11806.624023	4344.237305	30.354193
388.664124	1089.403809	11833.939453	4365.551270	30.491291
389.029236	1092.931152	11843.661133	4380.800781	30.582756
389.394318	1094.114136	11856.931641	4399.211426	30.708475
389.759308	1094.157104	11859.254883	4418.009766	30.876194
390.124298	1094.415161	11897.474609	4447.045898	31.034086
390.489227	1096.178833	11985.441406	4495.030273	31.212872
390.854126	1096.350830	12100.639648	4545.359375	31.342402
391.218964	1097.748901	12246.528320	4614.937500	31.547745
391.583771	1097.641479	12404.568359	4683.634277	31.715008
391.948578	1094.372192	12542.930664	4746.631348	31.901478
392.313354	1092.436401	12655.502930	4801.111328	32.073456
392.678040	1094.522705	12759.365234	4852.020508	32.212158
393.042694	1091.554565	12871.121094	4905.124023	32.374447
393.407349	1093.705322	12997.244141	4971.067383	32.573189
393.771942	1094.630371	13137.218750	5038.301270	32.747704
394.136505	1093.985107	13233.640625	5087.963867	32.900265
394.501007	1091.145996	13250.416016	5112.611328	33.073246
394.865479	1092.113770	13191.269531	5115.472168	33.253216
395.229919	1090.715820	13059.208984	5090.329590	33.417854
395.594360	1094.264771	12900.953125	5058.970703	33.580170
395.958710	1098.007080	12755.558594	5025.870117	33.693722
396.323029	1098.953491	12622.725586	4999.479980	33.847652
396.687286	1099.254517	12495.181641	4972.271973	33.985981
397.051544	1100.932129	12373.447266	4948.054199	34.128338
397.415771	1098.888794	12218.524414	4912.394043	34.295235
397.779938	1099.426636	12045.384766	4871.485352	34.460743
398.144043	1100.803101	11876.718750	4828.404297	34.591965
398.508148	1099.383545	11731.345703	4794.314453	34.753048
398.872192	1099.039429	11617.761719	4771.773926	34.916164
399.236237	1099.297485	11542.204102	4764.375000	35.096336
399.600189	1097.060669	11490.456055	4760.481934	35.247589
399.964111	1095.920776	11451.311523	4765.450195	35.435932
400.328003	1094.866943	11420.555664	4775.559570	35.645977
400.691925	1093.081787	11410.338867	4786.613770	35.799553
401.055695	1093.554932	11395.217773	4800.723145	35.986115
401.419495	1093.404297	11390.186523	4817.069824	36.163391
401.783234	1092.522583	11416.532227	4842.341309	36.321342
402.146942	1093.490356	11432.211914	4864.258301	36.472286
402.510620	1096.071167	11475.981445	4897.466797	36.622623
402.874237	1096.910034	11545.322266	4935.127441	36.734936
403.237823	1097.942505	11646.604492	4986.875488	36.866600
403.601379	1097.899536	11783.717773	5051.206543	36.995831
403.964874	1097.598389	11953.416016	5130.333984	37.148151
404.328369	1098.845825	12137.160156	5211.247559	37.255703
404.691772	1101.899902	12298.964844	5295.581055	37.453400
405.055176	1100.394409	12461.372070	5367.202637	37.556698
405.418549	1100.760010	12608.122070	5433.297363	37.650131
405.781860	1100.953613	12710.436523	5484.572266	37.758949
406.145142	1100.372925	12804.383789	5535.697266	37.895763
406.508362	1096.910034	12858.259766	5571.852051	38.047859
406.871552	1096.071289	12872.971680	5596.393066	38.213127
407.234741	1095.533569	12855.744141	5603.576172	38.333008
407.597870	1096.286377	12795.436523	5596.564453	38.466709
407.960938	1099.082397	12714.909180	5582.520020	38.597660
408.323975	1098.759766	12628.490234	5562.453125	38.714638
408.686981	1099.318970	12567.297852	5545.311035	38.768753
409.049957	1099.405029	12529.293945	5552.666504	38.961548
409.412903	1100.050293	12531.552734	5570.109375	39.102989
409.775787	1099.942749	12562.309570	5596.220215	39.226429
410.138611	1100.652466	12608.766602	5630.783203	39.364666
410.501434	1103.900269	12662.795898	5666.529785	39.472885
410.864227	1104.609985	12703.165039	5697.200195	39.596230
411.226929	1104.502441	12739.277344	5726.773438	39.728065
411.589630	1104.696045	12787.863281	5753.916992	39.794182
411.952271	1103.835815	12802.446289	5773.640137	39.917599
412.314911	1103.083008	12808.704102	5791.814453	40.055386
412.677490	1101.577393	12819.889648	5807.666016	40.160126
413.040009	1104.545532	12832.342773	5812.634766	40.144703
413.402496	1102.523682	12817.157227	5811.451172	40.196968
413.764984	1102.652832	12790.637695	5806.805664	40.247768
414.127380	1100.953613	12777.344727	5800.697266	40.249969
414.489777	1100.329956	12783.412109	5810.461914	40.315834
414.852112	1101.104248	12831.394531	5830.270996	40.315857
415.214386	1100.932129	12908.696289	5862.275391	40.323837
415.576660	1100.222290	13008.063477	5903.893066	40.340401
415.938904	1098.695190	13161.844727	5959.771484	40.296909
416.301086	1101.211792	13343.672852	6024.596680	40.215645
416.663208	1101.512817	13534.774414	6097.809570	40.184925
417.025299	1097.964111	13747.102539	6185.454590	40.220051
417.387390	1097.641479	13993.647461	6277.487793	40.166283
417.749420	1097.383301	14281.855469	6392.297363	40.160225
418.111389	1097.576904	14608.261719	6528.378418	40.196346
418.473328	1096.738037	14982.374023	6676.934570	40.186825
418.835266	1094.673340	15378.788086	6839.341797	40.217182
419.197144	1096.781128	15816.389648	7014.137695	40.200500
419.558960	1096.092896	16293.288086	7215.087891	40.263977
419.920746	1095.684204	16814.921875	7439.804199	40.358955
420.282471	1095.899292	17418.888672	7701.405762	40.467503
420.644226	1094.608887	18049.289063	7975.203613	40.582275
421.005920	1092.393433	18652.761719	8237.193359	40.687069
421.367523	1092.909668	19205.388672	8484.642578	40.810169
421.729126	1092.436401	19689.105469	8700.369141	40.910187
422.090668	1091.640503	20103.029297	8886.649414	41.001785
422.452179	1092.414917	20437.283203	9049.228516	41.131390
422.813660	1092.156860	20766.935547	9206.516602	41.242443
423.175110	1089.382324	21078.695313	9367.290039	41.411671
423.536469	1089.016724	21354.472656	9507.500977	41.541058
423.897858	1088.328369	21574.929688	9627.558594	41.682026
424.259155	1086.242065	21651.544922	9689.802734	41.835323
424.620453	1086.134644	21666.791016	9717.699219	41.940182
424.981689	1091.188965	21630.486328	9726.194336	42.041389
425.342865	1092.092285	21562.048828	9716.538086	42.132210
425.704041	1091.769653	21472.617188	9705.718750	42.264923
426.065186	1093.769775	21369.960938	9682.209961	42.357265
426.426239	1094.565674	21230.953125	9634.828125	42.412090
426.787262	1096.522949	20996.988281	9558.797852	42.523003
427.148254	1096.888672	20678.130859	9435.899414	42.586731
427.509216	1098.028442	20293.246094	9287.300781	42.663090
427.870178	1098.222046	19842.652344	9099.643555	42.686928
428.231049	1097.942383	19410.876953	8912.201172	42.670712
428.591858	1100.179321	18984.113281	8737.083008	42.702595
428.952698	1098.910278	18575.439453	8565.535156	42.723728
429.313446	1099.189941	18204.597656	8414.547852	42.766346
429.674164	1101.985962	17855.242188	8267.949219	42.773556
430.034851	1101.147217	17533.355469	8139.352051	42.831764
430.395477	1100.244019	17253.707031	8022.821777	42.855068
430.756104	1099.297607	17029.400391	7924.788574	42.846500
431.116699	1097.297241	16851.013672	7848.541992	42.854931
431.477203	1095.727295	16712.544922	7788.319824	42.855038
431.837646	1097.318848	16644.773438	7761.671875	42.864590
432.198090	1098.243652	16616.832031	7758.251953	42.916328
432.558502	1095.619629	16627.585938	7770.210938	42.973251
432.918884	1095.641113	16653.998047	7797.289063	43.074265
433.279205	1094.049561	16710.177734	7836.175293	43.174122
433.639465	1093.533325	16786.314453	7882.546875	43.262016
433.999756	1095.060425	16865.056641	7931.284180	43.349560
434.359924	1097.211182	16953.216797	7984.129395	43.434128
434.720093	1097.899536	17034.044922	8039.383301	43.558109
435.080200	1099.641602	17095.513672	8086.570801	43.679577
435.440277	1101.211670	17160.146484	8139.052734	43.825081
435.800354	1099.275879	17185.830078	8183.745605	44.039696
436.160370	1097.340210	17192.820313	8215.597656	44.225193
436.520325	1099.189819	17192.820313	8244.353516	44.397461
436.880249	1098.265137	17205.078125	8274.723633	44.555424
437.240112	1098.050171	17215.617188	8307.738281	44.731861
437.599976	1098.265137	17262.482422	8353.014648	44.881542
437.959808	1097.662964	17333.457031	8412.849609	45.055920
438.319519	1096.350952	17413.857422	8483.674805	45.272381
438.679260	1091.145996	17536.646484	8570.933594	45.482277
439.038940	1092.586914	17707.978516	8680.946289	45.670666
439.398590	1092.414795	17931.275391	8807.714844	45.818417
439.758179	1092.866577	18226.859375	8963.605469	45.936398
440.117767	1095.124878	18574.494141	9154.832031	46.109829
440.477295	1095.490601	18934.453125	9346.297852	46.251610
440.836792	1095.920776	19279.357422	9533.395508	46.401978
441.196198	1098.867310	19575.050781	9696.125977	46.531574
441.555603	1098.544800	19804.392578	9829.863281	46.676945
441.914978	1098.265137	19959.164063	9928.433594	46.817326
442.274323	1098.738403	20082.167969	10014.165039	46.964256
442.633575	1103.728149	20140.388672	10064.472656	47.070988
442.992859	1103.685181	20138.429688	10088.281250	47.201031
443.352051	1103.384033	20087.412109	10087.356445	47.323849
443.711182	1105.491943	19969.117188	10059.223633	47.465591
444.070313	1103.921753	19825.337891	10006.507813	47.552952
444.429382	1103.771240	19678.630859	9956.694336	47.660778
444.788452	1103.448608	19573.458984	9924.649414	47.759590
445.147430	1101.641968	19542.746094	9927.509766	47.859760
445.506409	1097.963989	19594.320313	9966.222656	47.945980
445.865295	1094.264771	19736.939453	10046.512695	48.020195
446.224182	1092.888184	19956.279297	10163.474609	48.085659
446.583038	1093.899048	20226.097656	10305.599609	48.147629
446.941833	1092.630005	20505.294922	10456.500000	48.235886
447.300598	1093.597778	20762.875000	10603.184570	48.347412
447.659302	1091.877197	20991.054688	10725.802734	48.413689
448.018005	1093.791504	21158.558594	10818.200195	48.465092
448.376648	1093.597900	21260.806641	10891.242188	48.582054
448.735229	1096.652100	21288.230469	10921.353516	48.657421
449.093781	1098.157715	21246.203125	10918.127930	48.739075
449.452301	1100.308350	21122.595703	10870.745117	48.797806
449.810791	1103.577759	20923.970703	10791.832031	48.880234
450.169220	1103.900269	20623.998047	10653.922852	48.924049
450.527618	1102.373169	20295.289063	10508.786133	49.009819
450.885956	1103.706665	20003.423828	10370.038086	49.028942
451.244263	1103.771118	19716.507813	10242.581055	49.099762
451.602539	1104.781982	19494.673828	10138.439453	49.122948
451.960785	1104.480835	19310.414063	10064.731445	49.216103
452.318970	1108.094238	19172.310547	10002.378906	49.237038
452.677124	1104.609863	19023.412109	9936.780273	49.289955
453.035248	1104.222778	18869.242188	9869.244141	49.338654
453.393311	1105.599243	18696.167969	9803.107422	49.444153
453.751312	1104.695923	18529.070313	9729.657227	49.499401
454.109314	1107.212402	18388.814453	9672.768555	49.564598
454.467285	1109.169800	18245.613281	9605.750000	49.581936
454.825195	1108.739502	18072.367188	9530.385742	49.645317
455.183044	1109.943848	17904.023438	9448.655273	49.652679
455.540894	1106.545654	17691.955078	9353.481445	49.724037
455.898651	1106.674683	17504.232422	9268.159180	49.772556
456.256378	1101.856934	17306.982422	9179.288086	49.844917
456.614105	1103.061401	17179.052734	9122.678711	49.885677
456.971771	1104.050781	17093.775391	9083.082031	49.900993
457.329407	1101.749512	17093.128906	9074.393555	49.855888
457.686981	1101.684814	17167.417969	9106.396484	49.824753
458.044525	1099.598633	17346.685547	9199.075195	49.851868
458.402008	1099.189941	17633.281250	9342.189453	49.854568
458.759460	1098.458618	18066.625000	9566.475586	49.905315
459.116913	1096.329468	18630.761719	9851.371094	49.930573
459.474274	1098.286621	19308.283203	10194.918945	49.954063
459.831635	1098.630859	19928.597656	10503.752930	49.947628
460.188904	1098.738403	20480.904297	10786.089844	49.980747
460.546173	1098.587769	20918.871094	11013.966797	50.026424
460.903381	1097.684448	21253.000000	11190.827148	50.076824
461.260559	1098.093262	21482.876953	11321.510742	50.152203
461.617706	1101.082764	21610.376953	11396.960938	50.201035
461.974762	1100.803101	21586.716797	11392.401367	50.237438
462.331848	1099.017822	21431.537109	11326.823242	50.302696
462.688843	1099.856812	21097.753906	11166.544922	50.338737
463.045837	1099.856812	20608.511719	10927.225586	50.374409
463.402740	1100.028931	20001.488281	10631.252930	50.425861
463.759613	1098.759888	19425.611328	10351.003906	50.484634
464.116486	1099.017944	18915.269531	10094.261719	50.488983
464.473267	1100.222290	18506.187500	9888.903320	50.492352
464.830048	1099.899658	18187.908203	9731.077148	50.510147
465.186737	1101.491333	17932.179688	9601.684570	50.504135
465.543457	1098.910522	17749.082031	9514.512695	50.543636
465.900085	1096.135864	17683.847656	9483.949219	50.566433
466.256683	1093.877563	17708.130859	9498.038086	50.584038
466.613251	1093.081665	17779.880859	9537.698242	50.606567
466.969757	1092.156738	17868.923828	9592.027344	50.664536
467.326233	1092.974121	17954.439453	9630.763672	50.634918
467.682678	1093.468750	18007.349609	9662.832031	50.664677
468.039093	1094.329102	18032.878906	9687.114258	50.729164
468.395416	1091.554688	18023.759766	9686.318359	50.759861
468.751740	1089.511353	18002.896484	9686.339844	50.828548
469.108032	1089.511353	17967.236328	9681.608398	50.907909
469.464233	1089.877075	17925.876953	9668.940430	50.956661
469.820435	1095.770264	17833.671875	9638.613281	51.038910
470.176575	1097.533936	17685.136719	9572.261719	51.090729
470.532715	1099.340576	17518.494141	9495.003906	51.133347
470.888763	1103.470093	17376.755859	9425.468750	51.139019
471.244751	1103.190430	17260.076172	9383.099609	51.246937
471.600769	1103.534668	17199.617188	9361.311523	51.303028
471.956696	1104.029297	17199.033203	9375.053711	51.388771
472.312592	1104.717651	17266.589844	9424.392578	51.477173
472.668457	1105.964966	17356.882813	9489.647461	51.588978
473.024292	1107.126465	17486.939453	9572.906250	51.684227
473.380035	1106.954468	17572.779297	9640.743164	51.827282
473.735779	1106.007935	17660.789063	9697.567383	51.897755
474.091492	1104.953979	17747.638672	9765.919922	52.040676
474.447113	1102.179565	17866.193359	9850.274414	52.183773
474.802765	1098.394165	17964.505859	9924.735352	52.331806
475.158295	1098.587769	18087.423828	10012.595703	52.469799
475.513824	1099.491089	18213.548828	10110.199219	52.650913
475.869324	1098.114624	18362.341797	10200.231445	52.722416
476.224762	1098.781372	18489.732422	10287.403320	52.835651
476.580170	1100.007202	18638.607422	10379.652344	52.909843
476.935516	1099.082397	18791.574219	10485.277344	53.051853
477.290863	1099.469604	19031.796875	10631.511719	53.155628
477.646118	1096.867065	19283.615234	10799.639648	53.350784
478.001373	1097.533936	19573.435547	10977.381836	53.474236
478.356537	1098.609253	19855.857422	11155.253906	53.614712
478.711700	1100.501953	20156.970703	11355.192383	53.812122
479.066833	1099.254395	20462.707031	11545.344727	53.947453
479.421875	1097.555298	20789.414063	11744.637695	54.068443
479.776917	1098.544678	21111.562500	11960.535156	54.274624
480.131897	1098.222046	21482.617188	12207.491211	54.498894
480.486847	1097.146606	21913.056641	12488.407227	54.723816
480.841766	1098.781372	22435.853516	12817.394531	54.921375
481.196594	1098.953491	23050.208984	13200.775391	55.130432
481.551453	1098.093262	23857.900391	13672.725586	55.249294
481.906219	1095.211060	24897.945313	14309.428711	55.515545
482.260986	1094.479736	26347.199219	15190.269531	55.818901
482.615662	1092.135254	28416.939453	16437.736328	56.159969
482.970306	1093.640991	31148.205078	18184.576172	56.866356
483.324951	1093.619385	34243.640625	20321.914063	58.003872
483.679504	1092.673096	37399.925781	22590.216797	59.210049
484.034027	1092.113892	40339.859375	24643.095703	60.005947
484.388519	1091.597656	42912.027344	26364.169922	60.431164
484.742981	1089.898560	45000.953125	27737.201172	60.684727
485.097351	1088.586426	46633.558594	28805.611328	60.856388
485.451721	1092.759033	47805.765625	29626.400391	61.082859
485.806030	1096.501465	48616.898438	30216.882813	61.279751
486.160309	1096.114258	49095.046875	30623.470703	61.516689
486.514557	1098.135986	49099.496094	30789.148438	61.854523
486.868744	1098.265137	48648.539063	30615.148438	62.075108
487.222931	1097.856567	47882.898438	30100.976563	61.992290
487.577026	1099.168579	46976.785156	29428.462891	61.749710
487.931122	1100.071777	46097.984375	28854.693359	61.679794
488.285126	1101.964478	45262.703125	28411.330078	61.840824
488.639099	1103.642090	44510.371094	28074.851563	62.136005
488.993042	1103.706543	43848.421875	27814.001953	62.487946
489.346954	1101.727905	43273.769531	27604.841797	62.845219
489.700836	1102.609741	42718.285156	27415.248047	63.227711
490.054626	1103.233521	42111.195313	27193.974609	63.623596
490.408417	1100.889160	41562.910156	26996.337891	63.999397
490.762146	1102.093628	41075.882813	26853.908203	64.421753
491.115814	1103.491577	40714.914063	26817.882813	64.916603
491.469513	1103.599121	40368.914063	26770.929688	65.368965
491.823090	1102.007324	39915.222656	26647.755859	65.817139
492.176666	1101.813965	39426.257813	26475.087891	66.206497
492.530182	1100.609375	38929.359375	26302.849609	66.621925
492.883698	1099.813721	38390.558594	26105.814453	67.056854
493.237091	1099.017944	37800.746094	25862.042969	67.471008
493.590515	1099.232910	37121.738281	25536.648438	67.839302
493.943878	1098.243652	36263.609375	25097.648438	68.247276
494.297150	1101.233276	35105.378906	24445.824219	68.652199
494.650452	1100.630981	33647.519531	23575.931641	69.055145
495.003662	1100.093262	31910.638672	22494.376953	69.438187
495.356873	1099.792114	30217.744141	21446.205078	69.875839
495.710022	1100.028687	28792.429688	20585.755859	70.364891
496.063110	1098.329590	27677.992188	19975.958984	71.022835
496.416168	1098.867188	26896.216797	19565.865234	71.584869
496.769165	1100.544922	26366.167969	19325.490234	72.133369
497.122162	1100.286865	26053.806641	19230.060547	72.654175
497.475098	1100.566528	25846.599609	19214.294922	73.198517
497.828003	1100.803223	25765.664063	19275.701172	73.687416
498.180847	1099.190063	25726.951172	19358.830078	74.142509
498.533661	1096.479980	25654.445313	19424.470703	74.631554
498.886444	1097.598267	25577.039063	19471.617188	75.058983
499.239136	1096.221802	25444.720703	19475.273438	75.483307
499.591827	1097.727417	25234.654297	19410.082031	75.868629
499.944427	1098.222168	24928.873047	19255.804688	76.194237
500.297089	1096.243286	24563.923828	19070.642578	76.592140
500.649628	1095.899292	24183.425781	18862.164063	76.951790
501.002136	1097.017700	23780.343750	18643.750000	77.355202
501.354584	1097.232788	23425.330078	18443.490234	77.688026
501.707001	1100.394409	23066.189453	18241.011719	78.033218
502.059387	1102.523804	22777.572266	18077.529297	78.315880
502.411682	1104.524048	22528.509766	17924.609375	78.510536
502.764038	1104.265747	22331.023438	17836.511719	78.826195
503.116302	1104.480957	22180.294922	17786.439453	79.152145
503.468475	1104.803589	22081.445313	17770.351563	79.448120
503.820709	1104.954102	22042.277344	17792.957031	79.704567
504.172852	1105.943481	22012.984375	17811.347656	79.903244
504.524902	1106.136963	22011.242188	17859.375000	80.139458
504.876953	1104.588379	22025.222656	17899.724609	80.280243
505.228912	1102.631226	22043.330078	17955.128906	80.477249
505.580872	1100.222290	22069.484375	17997.630859	80.581795
505.932770	1096.953125	22046.945313	18018.943359	80.773254
506.284698	1098.996460	22020.857422	18049.076172	81.016121
506.636505	1100.695557	22023.373047	18071.507813	81.112045
506.988342	1100.179443	22017.480469	18076.884766	81.161072
507.340088	1100.136353	22023.845703	18101.767578	81.255341
507.691772	1100.674072	22037.267578	18133.042969	81.352150
508.043396	1099.684692	22092.435547	18205.632813	81.485023
508.395050	1100.308472	22172.833984	18278.867188	81.521118
508.746582	1101.555786	22285.621094	18383.439453	81.579636
509.098114	1101.039551	22428.003906	18505.884766	81.609573
509.449646	1099.405151	22588.648438	18631.814453	81.586906
509.801086	1100.200806	22787.533203	18796.113281	81.595619
510.152557	1097.447754	22997.281250	18954.886719	81.541435
510.503906	1094.909790	23199.820313	19108.689453	81.492210
510.855194	1096.114136	23391.392578	19259.310547	81.466560
511.206482	1096.028076	23587.716797	19407.416016	81.414024
511.557709	1094.587158	23787.632813	19551.283203	81.331947
511.908844	1096.458496	23983.898438	19673.685547	81.167778
512.260010	1095.275513	24123.050781	19772.236328	81.106232
512.611206	1094.415161	24226.591797	19841.642578	81.043938
512.962219	1096.178711	24295.806641	19874.507813	80.942368
513.313232	1099.512573	24345.337891	19889.884766	80.833321
513.664246	1099.899780	24347.125000	19866.312500	80.725388
514.015137	1101.663330	24320.863281	19814.306641	80.591248
514.366028	1103.362549	24279.220703	19759.138672	80.496590
514.716919	1103.319458	24214.181641	19671.923828	80.345787
515.067688	1103.706665	24113.310547	19555.326172	80.190948
515.418396	1106.158569	24022.310547	19448.173828	80.039680
515.769104	1105.857422	23951.248047	19361.152344	79.907997
516.119812	1105.857544	23936.923828	19312.414063	79.744659
516.470459	1104.136719	24019.449219	19334.783203	79.556610
516.821106	1103.943237	24165.898438	19414.748047	79.398315
517.171631	1102.631348	24438.595703	19602.363281	79.275627
517.522095	1104.072266	24824.949219	19868.439453	79.104866
517.872559	1101.104126	25355.875000	20243.968750	78.924118
518.222961	1099.491089	25922.587891	20638.556641	78.713249
518.573364	1099.878296	26497.068359	21026.927734	78.461632
518.923645	1097.447876	27009.025391	21379.166016	78.272804
519.273987	1095.813232	27444.949219	21671.544922	78.088829
519.624207	1095.017334	27744.255859	21850.535156	77.884094
519.974487	1094.845215	27967.314453	21984.552734	77.736465
520.324646	1097.146606	28054.812500	21995.457031	77.522697
520.674744	1099.426392	28052.123047	21933.880859	77.300072
521.024780	1100.351196	27905.179688	21767.126953	77.100945
521.374878	1100.415771	27644.673828	21500.966797	76.854858
521.724792	1102.588013	27274.068359	21154.234375	76.616402
522.074707	1100.544800	26863.738281	20771.369141	76.352432
522.424744	1100.136230	26471.169922	20424.832031	76.168343
522.774536	1100.265381	26182.986328	20131.117188	75.872360
523.124329	1099.082520	25963.087891	19889.001953	75.570770
523.474182	1100.846191	25892.238281	19759.244141	75.261597
523.823914	1101.426880	25940.138672	19724.164063	74.974648
524.173523	1102.029175	26151.929688	19815.789063	74.705925
524.523132	1100.588013	26546.710938	20043.708984	74.444038
524.872803	1100.007324	27100.238281	20373.859375	74.129539
525.222290	1098.544678	27838.675781	20842.195313	73.835281
525.571777	1098.695190	28641.482422	21365.376953	73.582535
525.921326	1100.544800	29516.044922	21938.029297	73.331398
526.270752	1100.996582	30439.126953	22535.308594	73.059570
526.620178	1103.706543	31463.101563	23214.962891	72.831673
526.969482	1103.663574	32721.966797	24081.306641	72.671967
527.318787	1102.416138	34311.453125	25183.851563	72.514709
527.668030	1102.416138	36333.511719	26631.000000	72.460381
528.017212	1100.588013	38582.175781	28357.341797	72.720383
528.366394	1098.243652	40807.421875	30091.341797	73.013588
528.715515	1099.964233	42803.152344	31605.699219	73.149651
529.064636	1102.201050	44375.453125	32727.494141	73.082771
529.413635	1101.125732	45543.597656	33503.742188	72.909126
529.762695	1100.652466	46308.406250	33963.925781	72.693886
530.111633	1098.028442	46743.621094	34185.546875	72.487869
530.460510	1096.415405	46786.746094	34128.636719	72.295868
530.809387	1096.996216	46388.996094	33720.027344	72.028244
531.158142	1095.017456	45484.238281	32972.171875	71.812820
531.506958	1094.006470	44063.546875	31785.679688	71.426582
531.855652	1096.759521	42402.140625	30308.960938	70.722504
532.204407	1096.049683	40807.140625	28848.970703	69.887085
532.552979	1095.081909	39555.570313	27695.064453	69.161842
532.901611	1093.963379	38680.625000	26884.841797	68.617104
533.250183	1090.522217	38107.992188	26329.113281	68.180222
533.598755	1091.511597	37671.503906	25912.306641	67.853470
533.947205	1093.834473	37317.117188	25562.460938	67.549446
534.295593	1093.770020	37026.246094	25263.044922	67.263039
534.643982	1093.146362	36790.921875	25017.617188	67.019493
534.992249	1098.329590	36565.519531	24782.382813	66.777359
535.340576	1099.211426	36345.882813	24557.498047	66.554619
535.688843	1096.867065	36093.421875	24304.625000	66.314407
536.037048	1098.351074	35689.480469	23935.761719	66.021004
536.385315	1097.727417	35053.160156	23406.943359	65.701462
536.733398	1093.404297	34230.691406	22753.400391	65.364418
537.081421	1097.963989	33336.515625	22058.669922	65.017517
537.429443	1098.781372	32512.695313	21428.460938	64.715523
537.777466	1099.964233	31796.349609	20859.058594	64.369446
538.125427	1099.491089	31195.392578	20387.386719	64.088112
538.473267	1100.652466	30718.154297	19999.853516	63.810921
538.821167	1096.157349	30342.189453	19663.705078	63.487408
539.169006	1093.490356	30042.281250	19380.531250	63.170311
539.516846	1095.404541	29785.906250	19132.736328	62.868652
539.864502	1094.393677	29725.533203	19009.064453	62.570580
540.212219	1093.597778	29960.894531	19059.673828	62.236782
540.559875	1096.415527	30618.244141	19377.431641	61.923725
540.907410	1095.189453	31609.419922	19910.509766	61.660805
541.254944	1091.812866	32749.218750	20529.039063	61.398670
541.602478	1088.629517	33840.988281	21126.125000	61.178787
541.949951	1091.081543	34812.960938	21639.111328	60.933823
542.297363	1090.995483	35665.558594	22077.531250	60.699352
542.644714	1090.952393	36393.113281	22451.900391	60.508896
542.992126	1094.909912	36898.488281	22676.294922	60.277172
543.339355	1094.909912	37133.890625	22740.839844	60.062546
543.686646	1095.641113	36962.300781	22549.074219	59.814415
544.033813	1096.028320	36350.503906	22098.867188	59.574959
544.380920	1098.544800	35273.101563	21377.466797	59.339237
544.728027	1098.157593	33893.148438	20467.955078	59.063278
545.075134	1099.577026	32485.080078	19531.539063	58.727631
545.422180	1102.609741	31191.500000	18684.101563	58.431839
545.769165	1100.136230	30101.513672	17965.796875	58.154686
546.116150	1101.512695	29163.873047	17333.050781	57.840961
546.463013	1103.620605	28333.876953	16766.054688	57.518497
546.809875	1101.147095	27652.351563	16295.869141	57.227993
547.156677	1100.222290	27041.158203	15870.934570	56.939781
547.503418	1099.340576	26523.564453	15517.622070	56.710800
547.850098	1099.555664	26053.443359	15178.181641	56.418571
548.196777	1099.060913	25603.150391	14854.806641	56.136532
548.543396	1099.684448	25154.019531	14544.468750	55.893391
548.890015	1099.921143	24654.173828	14205.028320	55.637970
549.236633	1099.577026	24106.105469	13849.480469	55.418629
549.583069	1099.383545	23500.394531	13455.839844	55.160259
549.929504	1100.953613	22837.970703	13042.822266	54.937939
550.275879	1100.846191	22184.296875	12629.608398	54.681568
550.622253	1102.136597	21534.345703	12223.299805	54.429569
550.968567	1102.953979	20971.779297	11863.663086	54.158756
551.314819	1105.255249	20489.205078	11550.270508	53.884869
551.661072	1104.029297	20128.861328	11311.531250	53.653572
552.007263	1102.029175	19904.488281	11143.360352	53.404350
552.353394	1103.190430	19757.716797	11010.891602	53.111511
552.699524	1104.480957	19663.253906	10915.332031	52.863686
553.045593	1102.373169	19617.462891	10839.343750	52.589378
553.391602	1104.631470	19596.880859	10779.164063	52.316685
553.737549	1101.168579	19576.876953	10720.232422	52.063297
554.083435	1101.770996	19533.453125	10649.772461	51.802120
554.429321	1103.706543	19478.607422	10569.051758	51.512363
554.775146	1101.942993	19381.414063	10473.405273	51.267689
555.120972	1101.018188	19274.023438	10376.081055	51.037582
555.466675	1102.115112	19112.755859	10256.000977	50.824875
555.812439	1104.222900	18910.880859	10113.467773	50.594810
556.158081	1103.556274	18680.765625	9951.167969	50.335701
556.503662	1102.824829	18449.339844	9794.847656	50.108177
556.849182	1104.739136	18225.054688	9643.367188	49.874241
557.194702	1103.061401	18018.554688	9500.661133	49.644424
557.540161	1104.588501	17818.185547	9371.355469	49.461323
557.885620	1104.330322	17654.017578	9257.621094	49.265530
558.231018	1102.050537	17501.242188	9153.651367	49.097546
558.576355	1100.265381	17381.789063	9064.092773	48.913280
558.921692	1102.115112	17289.044922	8983.651367	48.690742
559.266968	1101.985962	17192.560547	8903.318359	48.483868
559.612183	1100.007324	17111.517578	8830.728516	48.282276
559.957336	1100.157837	17059.187500	8780.808594	48.127308
560.302429	1099.211426	17023.355469	8737.319336	47.965576
560.647522	1098.673706	17005.095703	8695.808594	47.761433
560.992554	1097.211182	16996.341797	8662.750000	47.584606
561.337524	1097.168213	17005.804688	8636.209961	47.389618
561.682434	1095.275513	17022.130859	8612.356445	47.197521
562.027344	1095.662720	17028.236328	8584.461914	47.003075
562.372253	1099.039307	17038.152344	8560.307617	46.811066
562.717102	1099.189941	17022.064453	8532.541016	46.683472
563.061829	1097.813354	17045.335938	8509.268555	46.474022
563.406494	1096.974609	17039.208984	8478.018555	46.298679
563.751160	1093.253784	17025.033203	8451.219727	46.184208
564.095825	1093.963501	17028.648438	8422.333984	45.990059
564.440369	1093.060059	17044.304688	8401.707031	45.818665
564.784973	1095.146362	17087.515625	8398.416016	45.667213
565.129456	1094.329224	17191.763672	8415.386719	45.479656
565.473877	1093.705444	17318.017578	8449.799805	45.339943
565.818298	1091.167480	17494.449219	8516.582031	45.267860
566.162659	1090.801880	17690.904297	8586.117188	45.152225
566.507019	1087.661621	17885.035156	8649.996094	45.020935
566.851196	1090.844849	18033.029297	8695.292969	44.884701
567.195435	1090.930786	18181.650391	8740.803711	44.760395
567.539612	1094.350586	18281.232422	8756.805664	44.583157
567.883789	1093.038574	18350.337891	8765.859375	44.461308
568.227844	1094.350708	18373.931641	8758.784180	44.355438
568.571960	1094.243042	18368.382813	8736.048828	44.238415
568.915955	1094.888306	18297.125000	8683.977539	44.116875
569.259888	1096.587402	18214.556641	8629.993164	44.008759
569.603821	1099.405151	18094.542969	8551.253906	43.846943
569.947632	1099.426514	17961.880859	8473.394531	43.730095
570.291504	1100.544922	17867.480469	8409.428711	43.591053
570.635193	1097.146606	17825.111328	8382.565430	43.552334
570.979004	1099.275879	17849.824219	8373.123047	43.424530
571.322632	1100.695435	17954.826172	8404.310547	43.334274
571.666321	1101.190186	18077.617188	8445.627930	43.262562
572.009949	1102.072021	18221.482422	8501.247070	43.220966
572.353455	1102.566772	18347.908203	8540.285156	43.128853
572.696960	1101.254761	18457.728516	8575.536133	43.063362
573.040405	1099.146973	18533.201172	8592.743164	42.982521
573.383850	1098.587769	18599.574219	8602.549805	42.877365
573.727173	1099.297607	18644.417969	8602.613281	42.765823
574.070557	1099.577148	18657.710938	8597.344727	42.702534
574.413879	1100.953735	18657.667969	8577.858398	42.587151
574.757019	1099.813721	18610.478516	8550.286133	42.548203
575.100281	1097.447876	18509.691406	8500.818359	42.518188
575.443420	1097.125122	18375.201172	8429.776367	42.439049
575.786499	1094.458130	18211.888672	8343.421875	42.348438
576.129517	1091.361084	18045.138672	8262.142578	42.296070
576.472534	1090.909302	17876.083984	8182.368652	42.248352
576.815491	1091.296509	17689.091797	8090.788574	42.171219
577.158447	1090.221191	17486.445313	7999.421387	42.138969
577.501343	1090.049072	17278.958984	7903.947266	42.089916
577.844116	1089.167236	17046.132813	7795.654297	42.028587
578.187012	1089.769531	16777.798828	7677.123047	41.989681
578.529724	1090.479370	16485.935547	7538.955078	41.885578
578.872375	1090.285645	16187.790039	7400.121582	41.793903
579.215027	1092.199951	15902.677734	7273.309570	41.734707
579.557617	1093.834473	15631.097656	7149.960938	41.659328
579.900146	1097.426270	15371.777344	7032.226074	41.576668
580.242676	1098.200684	15135.146484	6920.319824	41.477108
580.585144	1098.372681	14925.915039	6830.157715	41.451946
580.927612	1099.964355	14731.781250	6742.383301	41.391541
581.269958	1099.598633	14558.878906	6664.373535	41.345264
581.612305	1099.770752	14418.152344	6601.118652	41.306427
581.954590	1099.125488	14297.750000	6538.573242	41.212231
582.296814	1099.512573	14190.812500	6493.578613	41.203442
582.639038	1100.200806	14103.037109	6447.960449	41.127640
582.981140	1099.340576	14021.628906	6400.642578	41.024483
583.323242	1099.512573	13931.920898	6356.765625	40.968559
583.665283	1098.265015	13851.415039	6320.826172	40.951145
584.007324	1100.028687	13781.985352	6287.380859	40.903404
584.349304	1102.007446	13709.204102	6249.763672	40.831890
584.691284	1102.308472	13636.271484	6220.083008	40.831257
585.033142	1102.351685	13574.391602	6189.412109	40.787720
585.374939	1104.566895	13519.954102	6156.181641	40.688339
585.716736	1107.836060	13466.011719	6136.652832	40.692226
586.058411	1106.567139	13411.962891	6111.789063	40.675018
586.400085	1110.137451	13364.902344	6093.615234	40.665634
586.741760	1109.212769	13321.413086	6077.226074	40.680737
587.083374	1109.234253	13313.434570	6072.902832	40.671806
587.424988	1108.954590	13301.734375	6064.944824	40.646927
587.766541	1107.018799	13296.334961	6064.687012	40.672241
588.107971	1106.717773	13323.178711	6069.095703	40.620422
588.449341	1105.964966	13351.696289	6076.925293	40.593414
588.790710	1102.932373	13396.068359	6090.625488	40.572994
589.132080	1100.415894	13431.727539	6104.240234	40.578201
589.473267	1097.619873	13485.625977	6121.962891	40.558125
589.814514	1098.308105	13539.355469	6138.867676	40.515556
590.155762	1094.866943	13599.190430	6154.009766	40.459148
590.496948	1095.662720	13625.881836	6170.097168	40.497574
590.838013	1093.791504	13636.012695	6172.398438	40.492088
591.179077	1093.425903	13644.377930	6175.022949	40.487743
591.520081	1093.124756	13635.905273	6166.526855	40.448788
591.861023	1092.909668	13604.050781	6152.331543	40.439335
592.201965	1094.049683	13567.380859	6134.114258	40.406723
592.542847	1094.350708	13520.362305	6113.509766	40.392357
592.883606	1094.350586	13474.616211	6096.733887	40.406105
593.224365	1093.812988	13432.461914	6080.753418	40.417233
593.565125	1095.038940	13414.565430	6070.902832	40.390057
593.905823	1093.662354	13405.166016	6069.654785	40.417419
594.246521	1093.640991	13429.277344	6069.590332	40.338001
594.587097	1095.813232	13479.755859	6081.591797	40.260025
594.927612	1095.060425	13530.147461	6094.346680	40.203064
595.268127	1098.501831	13617.537109	6135.770508	40.236874
595.608582	1096.738159	13737.702148	6187.668945	40.273277
595.948975	1097.361816	13919.186523	6255.054199	40.225887
596.289307	1097.921021	14138.355469	6341.581055	40.210777
596.629700	1097.920898	14373.543945	6437.958984	40.224388
596.969971	1098.695190	14583.634766	6517.688965	40.185524
597.310242	1095.791748	14748.256836	6580.879883	40.176540
597.650391	1097.017700	14833.452148	6615.357910	40.173019
597.990540	1098.157715	14878.662109	6630.885742	40.148952
598.330627	1096.910278	14868.209961	6625.100098	40.142834
598.670654	1098.071655	14827.321289	6608.173340	40.134033
599.010620	1096.802612	14715.005859	6559.458008	40.112892
599.350525	1097.211182	14560.815430	6487.986328	40.039616
599.690491	1095.447510	14334.487305	6398.857422	40.058872
600.030334	1095.963745	14053.934570	6288.843750	40.074791
600.370178	1098.437134	13753.231445	6160.762695	40.003223
600.710022	1097.920898	13462.032227	6043.737793	40.001392
601.049683	1100.523438	13202.603516	5938.886230	39.979595
601.389343	1100.222290	13015.827148	5859.758301	39.943722
601.728943	1098.458618	12878.240234	5809.666016	39.994015
602.068542	1099.340454	12808.490234	5779.253906	39.968006
602.408081	1099.555542	12813.306641	5777.081543	39.931923
602.747498	1096.587402	12897.833984	5807.020996	39.914715
603.087036	1097.426270	13028.324219	5861.156738	39.927677
603.426453	1096.200317	13228.691406	5929.831543	39.840385
603.765869	1096.049683	13460.613281	6015.885742	39.789806
604.105103	1095.404419	13732.733398	6125.511230	39.803562
604.444336	1095.038940	14025.156250	6235.848145	39.758411
604.783569	1092.694580	14310.224609	6344.979980	39.737267
605.122681	1093.339722	14537.800781	6433.421387	39.719566
605.461792	1093.898926	14714.596680	6494.976563	39.653458
605.800842	1091.619141	14821.641602	6539.541016	39.678902
606.139954	1091.188965	14841.731445	6547.692383	39.682095
606.478943	1092.458008	14791.166016	6525.798340	39.663158
606.817932	1092.909668	14669.818359	6475.898926	39.648125
607.156799	1096.307861	14492.224609	6410.794922	39.672440
607.495605	1098.050049	14283.812500	6325.687500	39.646076
607.834412	1097.770386	14040.190430	6223.609863	39.604954
608.173157	1099.641602	13796.268555	6128.394043	39.606995
608.511841	1100.394409	13598.674805	6055.309570	39.644775
608.850464	1098.394165	13492.187500	6012.723633	39.651539
609.189148	1099.856567	13428.931641	5992.871582	39.686798
609.527710	1100.674072	13402.199219	5980.117188	39.665352
609.866211	1099.684692	13397.660156	5978.396973	39.670856
610.204712	1098.544800	13401.832031	5977.773438	39.657925
610.543091	1097.619873	13421.490234	5986.333984	39.668659
610.881409	1095.705566	13409.467773	5979.472168	39.661045
611.219788	1093.963623	13372.667969	5963.513672	39.658501
611.558044	1093.812988	13309.347656	5939.682129	39.669724
611.896301	1091.705078	13199.097656	5892.170898	39.649048
612.234436	1092.737671	13027.894531	5821.603027	39.621307
612.572693	1094.694824	12793.499023	5729.527344	39.618000
612.910767	1094.221558	12539.918945	5622.417480	39.562428
613.248840	1094.178589	12277.156250	5520.296875	39.579067
613.586792	1096.888550	12025.425781	5415.466309	39.516521
613.924805	1098.695190	11788.512695	5319.347168	39.482918
614.262695	1099.727661	11571.411133	5223.549805	39.380699
614.600525	1101.254761	11383.238281	5151.734375	39.393951
614.938293	1102.953979	11231.972656	5092.759766	39.389854
615.276123	1103.040039	11102.236328	5032.988770	39.302647
615.613892	1100.824707	10995.621094	4988.639648	39.291508
615.951538	1099.362183	10904.834961	4944.956543	39.218857
616.289185	1099.835205	10831.686523	4910.629883	39.157963
616.626770	1097.641479	10767.162109	4886.368652	39.182159
616.964294	1097.727417	10728.683594	4868.560547	39.153255
617.301819	1096.781128	10697.540039	4854.859375	39.143555
617.639221	1097.619873	10677.108398	4848.321289	39.153461
617.976624	1097.211060	10657.708008	4847.503906	39.226967
618.313965	1096.243286	10649.468750	4841.718262	39.206390
618.651306	1096.028198	10634.735352	4835.911133	39.207439
618.988525	1094.178589	10620.928711	4834.899902	39.265450
619.325684	1097.297363	10602.753906	4832.232910	39.292542
619.662964	1099.921387	10589.075195	4834.232910	39.353470
620.000000	1099.813721	10570.235352	4827.974121	39.366360
620.337097	1098.974854	10547.738281	4820.316895	39.384434
620.674133	1097.942505	10512.743164	4805.111328	39.375969
621.011047	1097.017578	10483.148438	4797.067383	39.420395
621.347961	1096.092773	10448.735352	4781.237793	39.402180
621.684875	1094.737793	10412.816406	4763.537109	39.372917
622.021729	1095.813232	10378.791016	4748.266113	39.345703
622.358521	1095.684204	10344.764648	4731.962891	39.315033
622.695313	1097.103638	10306.308594	4716.627441	39.303326
623.031982	1096.824097	10284.176758	4704.324707	39.265942
623.368652	1095.296997	10261.485352	4690.323242	39.220516
623.705261	1095.963745	10251.548828	4684.494141	39.194984
624.041748	1097.469238	10251.785156	4679.719238	39.131813
624.378296	1099.340454	10255.355469	4681.892090	39.127850
624.714722	1099.426636	10275.638672	4684.666504	39.071022
625.051147	1101.190186	10313.256836	4696.904785	39.032661
625.387512	1100.501953	10365.477539	4723.101563	39.099937
625.723877	1098.609253	10452.929688	4756.137695	39.099884
626.060120	1099.770630	10549.522461	4793.066895	39.083527
626.396301	1098.716797	10676.248047	4840.814941	39.071636
626.732483	1099.362183	10795.445313	4890.820801	39.102993
627.068604	1102.287109	10906.147461	4935.062988	39.094559
627.404724	1102.631348	11006.245117	4971.003418	39.060207
627.740662	1102.609863	11092.771484	5001.351074	39.025806
628.076721	1104.029175	11155.273438	5020.622559	38.966255
628.412720	1104.889526	11191.256836	5031.914063	38.933983
628.748596	1103.620605	11195.687500	5031.247559	38.917965
629.084473	1105.943481	11178.266602	5019.181152	38.851391
629.420227	1107.277100	11111.333984	4993.758789	38.849056
629.755981	1106.911377	11027.991211	4961.066406	38.848141
630.091675	1108.180298	10910.987305	4914.845703	38.832405
630.427307	1110.503174	10777.874023	4859.699219	38.781960
630.762939	1106.266113	10644.050781	4805.993652	38.790218
631.098450	1105.362671	10515.711914	4760.245605	38.838970
631.434021	1104.781982	10400.235352	4714.971191	38.838226
631.769470	1103.685059	10291.620117	4678.859375	38.911617
632.104980	1102.846313	10191.930664	4642.704102	38.946255
632.440308	1102.029053	10108.780273	4610.312988	38.951714
632.775635	1101.813965	10030.147461	4579.298828	38.948868
633.110901	1099.211426	9979.409180	4559.833984	38.970108
633.446106	1098.480103	9941.985352	4543.423340	38.954502
633.781250	1099.641602	9918.605469	4534.992188	38.954128
634.116394	1099.232910	9898.128906	4529.206543	38.981861
634.451538	1102.158081	9885.289063	4520.345703	38.917645
634.786560	1102.867798	9865.500977	4511.097168	38.895039
635.121582	1102.502075	9830.788086	4501.870605	38.946575
635.456543	1102.308594	9802.785156	4487.094238	38.903450
635.791443	1103.534424	9758.627930	4471.629395	38.914597
636.126221	1104.502441	9707.848633	4458.058105	38.979668
636.461060	1105.190674	9659.993164	4438.206055	38.960751
636.795776	1107.190918	9596.716797	4413.815918	38.949467
637.130493	1105.943481	9518.750000	4385.769531	38.986111
637.465210	1103.878784	9428.092773	4351.313477	39.011906
637.799805	1102.028931	9344.297852	4318.105469	39.019314
638.134399	1101.233276	9254.458984	4288.316895	39.089848
638.468933	1101.254761	9165.372070	4247.859863	39.019833
638.803345	1101.125610	9083.641602	4217.146484	39.035576
639.137756	1100.050293	9002.297852	4187.616211	39.071999
639.472168	1100.394409	8935.709961	4160.602051	39.056595
639.806519	1100.007324	8868.152344	4134.297852	39.060684
640.140747	1096.695190	8796.789063	4106.401367	39.086617
640.474976	1094.071167	8722.736328	4075.881348	39.086918
640.809204	1094.759277	8651.587891	4048.974854	39.093327
641.143372	1095.899292	8599.172852	4023.014893	39.011185
641.477478	1095.770264	8539.037109	3997.850586	38.989338
641.811462	1095.469116	8489.138672	3977.697510	38.982384
642.145447	1096.630615	8438.615234	3961.931885	39.026253
642.479370	1098.974976	8393.835938	3942.209229	38.975857
642.813293	1100.846069	8347.163086	3920.743896	38.914913
643.147095	1100.846191	8300.597656	3904.806396	38.945236
643.480957	1101.039673	8259.368164	3885.514160	38.898392
643.814758	1104.373413	8223.168945	3871.103271	38.865143
644.148438	1105.362793	8195.423828	3864.134521	38.910408
644.482117	1105.986450	8168.646973	3852.370117	38.885967
644.815735	1103.061401	8131.695801	3843.228760	38.985775
645.149292	1102.717163	8109.973145	3837.120361	39.022457
645.482788	1101.899902	8092.078125	3828.152100	39.001183
645.816223	1099.942749	8076.871582	3825.549316	39.065994
646.149658	1099.706177	8067.816895	3825.915039	39.124077
646.483032	1100.502075	8075.860840	3829.893799	39.129047
646.816345	1100.093384	8077.473633	3830.732910	39.135601
647.149658	1098.200684	8077.538574	3836.346680	39.232174
647.482849	1096.200317	8084.291992	3839.443604	39.255970
647.816101	1096.824097	8078.957520	3835.916260	39.230019
648.149231	1098.308105	8086.378418	3842.562256	39.270557
648.482239	1100.523560	8096.530762	3843.701660	39.210625
648.815247	1100.953613	8095.196777	3843.078125	39.205452
649.148254	1099.426636	8089.260742	3842.949219	39.250179
649.481201	1100.222412	8077.538574	3842.605225	39.304264
649.814087	1101.082764	8073.194824	3840.153320	39.286095
650.146973	1098.630859	8060.848633	3836.131104	39.319370
650.479736	1098.931885	8054.697266	3836.583008	39.358013
650.812500	1101.921509	8054.976563	3834.926758	39.306538
651.145203	1101.104248	8043.039551	3832.410156	39.345020
651.477844	1100.803101	8051.212402	3835.292236	39.342854
651.810486	1097.705933	8047.298340	3831.851318	39.342529
652.143005	1096.716675	8036.156250	3827.721680	39.354836
652.475525	1096.716675	8036.543457	3823.850098	39.296852
652.807922	1097.426392	8025.961426	3821.763916	39.320541
653.140381	1097.168213	8024.478027	3815.698486	39.243668
653.472717	1095.383057	7998.733887	3806.901611	39.278297
653.805115	1095.727173	7972.062988	3796.857666	39.281536
654.137390	1093.770020	7941.564453	3780.726807	39.238281
654.469543	1093.296753	7907.625000	3765.090576	39.208473
654.801758	1095.619629	7876.094238	3757.885010	39.263702
655.133850	1096.867065	7834.734375	3742.872559	39.270668
655.465881	1097.490723	7790.793457	3728.225586	39.303986
655.797974	1099.082397	7760.961426	3720.719482	39.352821
656.129944	1099.921143	7724.742188	3715.922607	39.487881
656.461853	1098.114502	7702.911133	3710.137451	39.547363
656.793762	1096.974487	7684.500000	3707.039795	39.621334
657.125610	1097.189575	7687.489258	3710.825195	39.658829
657.457397	1096.845581	7706.740234	3725.364990	39.766438
657.789124	1098.265137	7744.443359	3744.206299	39.811470
658.120789	1096.652100	7805.526367	3769.327393	39.837910
658.452393	1095.963867	7895.795410	3804.987549	39.839569
658.783997	1096.393921	8007.443848	3850.304932	39.847942
659.115540	1099.706177	8137.502930	3902.311523	39.822201
659.447083	1099.082520	8251.990234	3952.382080	39.890064
659.778503	1097.383301	8362.735352	3995.204590	39.885490
660.109924	1099.276001	8457.262695	4032.864990	39.869450
660.441284	1099.770630	8524.668945	4063.256104	39.912807
660.772522	1100.394287	8568.072266	4081.666992	39.922352
661.103760	1101.082520	8577.277344	4087.431152	39.944767
661.434998	1102.028809	8569.641602	4085.474365	39.951797
661.766113	1104.007690	8515.679688	4066.890869	39.975910
662.097229	1104.029419	8421.323242	4029.230469	39.976543
662.428345	1104.717651	8297.867188	3979.202881	39.961430
662.759277	1102.179565	8148.234863	3923.324951	40.038651
663.090332	1102.609741	8003.937988	3867.103027	40.057407
663.421204	1101.942993	7856.973145	3809.461182	40.081509
663.752075	1102.846313	7713.859375	3754.680420	40.112370
664.082886	1102.867798	7589.284668	3708.932861	40.177265
664.413635	1100.889160	7478.367676	3665.744629	40.217392
664.744324	1099.233032	7379.688965	3625.567383	40.225334
665.075012	1097.899536	7287.720215	3592.875244	40.307720
665.405640	1097.963989	7214.679199	3571.324219	40.436089
665.736206	1098.394165	7161.597168	3550.182129	40.437176
666.066772	1095.727051	7110.623047	3536.158691	40.573132
666.397278	1096.867065	7076.941895	3524.544434	40.596104
666.727661	1095.555054	7038.851074	3508.929443	40.606670
667.058044	1097.469238	7009.146973	3498.046631	40.607380
667.388306	1097.512329	6988.822266	3490.045410	40.611225
667.718567	1098.673828	6970.820313	3485.786865	40.651455
668.048828	1099.899780	6964.669922	3484.539307	40.660412
668.378967	1102.889404	6962.884277	3485.098633	40.652069
668.709167	1103.921875	6958.732910	3483.851318	40.649124
669.039246	1101.878540	6962.690918	3483.528320	40.636856
669.369263	1102.416260	6956.776367	3488.862305	40.763565
669.699341	1104.846558	6948.473633	3488.303223	40.787281
670.029236	1105.083130	6938.924805	3482.646729	40.754677
670.359131	1107.147827	6934.085449	3481.183838	40.742432
670.688965	1106.502686	6921.546875	3475.656494	40.741802
671.018738	1105.384277	6902.124512	3468.601807	40.768044
671.348511	1103.878662	6880.379883	3458.449951	40.761204
671.678223	1104.308716	6849.687500	3448.448975	40.800446
672.007813	1102.867676	6814.112793	3434.447021	40.824360
672.337341	1100.157715	6783.227051	3420.746094	40.833363
672.666992	1102.201050	6750.986328	3404.507813	40.757553
672.996460	1102.115112	6716.401855	3382.375977	40.615326
673.325867	1100.673950	6688.054199	3367.707764	40.574177
673.655273	1097.275635	6651.426270	3355.620117	40.660484
673.984619	1095.382935	6617.271484	3340.929932	40.666283
674.314026	1096.415283	6586.729492	3330.176025	40.685478
674.643250	1098.243652	6561.845215	3322.756104	40.715130
674.972412	1098.802856	6540.853516	3307.872559	40.592598
675.301514	1098.243652	6515.022949	3293.741455	40.531425
675.630676	1097.404663	6495.687012	3284.062744	40.506557
675.959778	1100.243774	6470.328125	3278.427490	40.561440
676.288757	1099.189941	6442.131348	3265.652100	40.548119
676.617737	1098.265137	6422.817383	3259.500732	40.589996
676.946594	1098.566284	6406.148438	3248.682129	40.510269
677.275513	1100.673950	6395.158203	3242.917969	40.461807
677.604309	1101.899902	6392.383301	3240.831787	40.429802
677.933044	1100.781494	6398.320313	3240.014648	40.381641
678.261780	1100.803101	6410.879883	3240.186523	40.289124
678.590393	1099.340576	6432.216797	3248.639160	40.302803
678.919067	1101.254761	6468.823242	3258.812500	40.196182
679.247620	1100.523315	6513.860840	3271.480713	40.103867
679.576111	1099.125366	6559.737305	3288.385986	40.091858
679.904541	1098.179077	6620.088867	3312.173584	40.094727
680.232971	1098.006958	6676.332520	3335.015625	40.101795
680.561401	1097.490845	6732.962891	3357.964600	40.111523
680.889709	1097.082153	6787.829590	3376.504150	40.054874
681.217957	1096.350830	6834.244141	3393.173340	40.029018
681.546143	1094.006470	6873.323730	3405.820068	40.001495
681.874390	1095.318481	6900.359375	3413.519775	39.934277
682.202454	1096.393799	6914.985840	3421.026367	39.951809
682.530579	1096.157227	6905.263672	3422.295166	40.042957
682.858521	1099.017700	6874.012695	3412.960693	40.068310
683.186523	1099.426514	6833.169922	3394.742920	40.031727
683.514465	1099.641602	6772.193848	3372.460693	40.066956
683.842346	1100.157715	6708.701660	3347.855469	40.076317
684.170166	1101.727905	6635.251465	3320.497070	40.096859
684.497925	1100.673950	6558.102051	3289.870117	40.114063
684.825623	1100.609375	6474.780762	3258.575684	40.154400
685.153320	1103.814087	6395.049805	3230.077881	40.184631
685.481018	1100.932007	6318.846680	3203.558350	40.296299
685.808533	1097.920898	6247.827637	3175.081787	40.333950
686.136047	1096.910034	6188.508301	3148.820313	40.299923
686.463623	1094.716309	6143.836426	3128.387451	40.277733
686.791016	1093.898926	6115.273438	3117.074463	40.291271
687.118408	1093.038696	6102.132324	3109.353271	40.253082
687.445740	1093.705566	6096.776855	3107.202148	40.245213
687.772949	1094.221558	6093.271484	3103.459473	40.192398
688.100220	1095.705688	6093.701660	3103.050781	40.162998
688.427429	1093.985107	6090.109375	3102.362549	40.198711
688.754517	1094.995972	6091.464355	3097.200684	40.072399
689.081604	1098.157593	6083.226563	3093.544434	40.027267
689.408630	1102.158203	6065.138672	3084.360352	39.939754
689.735657	1102.394653	6042.167480	3076.230469	39.958027
690.062622	1104.502441	6012.873535	3065.197021	39.945930
690.389465	1104.244385	5970.202637	3045.259277	39.889675
690.716248	1105.685425	5911.765137	3024.288818	39.920341
691.043091	1103.599121	5852.058105	2997.790771	39.890659
691.369812	1101.125732	5789.728027	2973.615479	39.937054
691.696533	1100.910645	5724.429688	2949.333008	39.978691
692.023132	1104.050781	5671.025391	2923.910400	39.848255
692.349670	1102.287109	5605.705078	2901.735840	39.957401
692.676270	1101.039673	5552.150391	2876.657715	39.891571
693.002747	1098.523315	5502.918457	2857.558350	39.938175
693.329163	1099.146973	5454.503906	2835.254639	39.861431
693.655518	1098.566284	5414.843262	2816.198486	39.794300
693.981873	1098.286743	5380.150879	2798.303711	39.702728
694.308167	1097.318726	5352.255371	2787.097900	39.713383
694.634399	1099.340576	5318.573730	2771.332520	39.627861
694.960571	1100.588013	5295.774902	2762.363770	39.611481
695.286743	1100.222412	5279.320801	2753.782227	39.567379
695.612854	1098.652222	5266.910645	2749.329834	39.601135
695.938904	1098.630737	5266.072266	2746.856445	39.550064
696.264832	1098.845825	5277.858887	2749.996582	39.510544
696.590820	1100.846191	5295.279785	2755.309082	39.444252
696.916687	1100.394409	5332.553223	2771.354248	39.482449
697.242554	1100.114868	5381.053711	2792.926758	39.543003
697.568359	1099.856689	5452.417480	2822.607666	39.580173
697.894043	1100.738525	5550.967285	2855.472168	39.430191
698.219788	1099.534058	5673.821777	2903.047852	39.427204
698.545349	1101.792358	5811.623535	2949.849365	39.238285
698.870972	1102.136597	5945.833984	2998.651367	39.154278
699.196533	1102.846313	6066.235840	3044.162354	39.112705
699.521973	1101.211670	6169.517578	3081.091309	39.063934
699.847412	1101.125488	6241.720215	3109.051758	39.060192
700.172852	1103.534424	6290.349609	3127.161621	39.014828
700.498169	1104.201172	6309.813965	3130.172607	38.918980
700.823486	1103.749512	6299.876953	3121.418945	38.830254
701.148682	1104.244263	6248.881348	3096.146973	38.718040
701.473816	1103.663574	6161.343750	3060.873535	38.697781
701.799072	1104.351685	6041.027832	3012.910889	38.660812
702.124146	1100.867554	5895.203125	2957.850586	38.732857
702.449158	1100.544922	5739.484863	2895.971680	38.703384
702.774109	1103.018433	5585.810059	2835.405273	38.645267
703.099060	1102.674316	5439.813965	2779.097168	38.652729
703.424011	1102.502197	5303.388672	2725.606689	38.637188
703.748840	1100.630981	5186.169434	2677.213867	38.589352
704.073608	1099.426514	5079.683105	2637.101318	38.632553
704.398315	1100.846069	4983.585449	2603.462646	38.699909
704.723022	1103.513062	4910.414551	2578.405518	38.742596
705.047668	1101.942993	4846.686523	2549.928955	38.667160
705.372253	1101.770996	4791.173828	2525.775146	38.597145
705.696716	1102.953857	4744.007324	2507.772949	38.582764
706.021240	1102.674316	4704.539551	2493.383789	38.610813
706.345764	1097.641357	4671.353027	2480.995361	38.709167
706.670044	1099.942749	4651.285645	2473.231445	38.669563
706.994446	1097.189697	4638.187500	2468.305664	38.721176
707.318665	1095.318604	4627.347168	2463.229980	38.728775
707.642883	1094.587158	4623.282227	2459.680908	38.685513
707.967102	1093.038574	4619.604980	2454.820068	38.614941
708.291260	1092.113770	4615.281250	2451.508057	38.584435
708.615295	1095.447510	4613.969727	2452.777100	38.576694
708.939331	1096.630493	4619.562012	2457.444092	38.627308
709.263367	1096.415527	4626.874512	2461.595459	38.668625
709.587280	1097.641479	4638.832520	2463.638428	38.574509
709.911194	1098.888794	4662.556152	2467.015381	38.390972
710.234985	1098.071533	4684.344238	2473.252686	38.345695
710.558716	1101.104248	4710.605469	2484.178711	38.317608
710.882568	1104.373413	4740.694824	2494.610107	38.231953
711.206177	1105.212158	4770.397949	2505.600586	38.207844
711.529785	1105.319702	4803.110840	2518.118408	38.206558
711.853394	1104.459351	4831.093262	2528.894043	38.223091
712.176880	1103.857178	4846.105469	2536.959229	38.295216
712.500427	1102.394653	4857.935059	2538.572510	38.241573
712.823792	1100.458984	4866.709961	2540.895264	38.245892
713.147217	1100.351440	4868.839355	2541.841553	38.251156
713.470520	1099.878052	4855.547363	2541.325439	38.380573
713.793823	1100.437378	4835.544922	2533.410645	38.364983
714.117004	1100.523438	4811.112305	2522.097412	38.311275
714.440247	1098.200684	4783.754395	2512.827393	38.383018
714.763367	1098.415771	4748.201172	2500.374268	38.412079
715.086365	1097.232788	4712.841797	2489.942871	38.519379
715.409485	1096.781128	4687.011230	2477.683350	38.462780
715.732361	1097.275879	4667.696777	2467.939941	38.389423
716.055298	1097.405029	4649.586426	2461.208008	38.393394
716.378174	1100.308472	4628.573242	2452.088867	38.312897
716.700928	1100.760132	4606.527832	2445.636230	38.361816
717.023804	1101.340820	4585.686035	2434.882324	38.272369
717.346558	1101.728027	4558.823242	2424.988525	38.276657
717.669189	1098.609253	4527.421387	2412.793457	38.327682
717.991760	1097.469238	4488.470215	2397.458252	38.336437
718.314392	1096.587402	4450.594238	2380.273438	38.273209
718.636902	1099.577026	4408.395508	2361.281494	38.131573
718.959351	1100.157715	4350.775391	2342.225586	38.210213
719.281738	1098.566284	4297.457031	2322.093994	38.248501
719.604065	1098.781250	4234.267090	2299.403320	38.291420
719.926453	1097.727417	4175.249023	2277.572510	38.337509
720.248718	1095.963745	4124.210449	2259.635010	38.427231
720.570923	1096.028198	4073.709229	2236.556885	38.302578
720.893066	1093.705322	4031.316406	2219.608398	38.327168
721.215088	1096.178833	3985.740723	2200.552246	38.219406
721.537170	1098.501709	3947.241943	2187.260254	38.218948
721.859192	1100.587891	3913.947754	2177.194336	38.267639
722.181152	1099.103882	3881.728271	2165.967285	38.340187
722.503052	1100.480469	3859.360107	2157.945068	38.329494
722.824951	1102.652832	3835.615479	2152.739746	38.423023
723.146790	1103.190552	3823.097412	2148.739258	38.440609
723.468506	1104.330444	3809.010010	2141.835205	38.359615
723.790161	1104.480957	3791.265625	2134.436523	38.334133
724.111816	1107.599609	3779.392822	2135.017578	38.454247
724.433472	1109.083618	3764.789063	2131.833984	38.511436
724.755005	1108.933105	3761.132813	2133.189209	38.619118
725.076477	1107.642578	3755.927979	2128.048584	38.530819
725.397888	1106.309082	3752.292969	2126.091309	38.540756
725.719299	1106.760864	3754.831055	2128.220703	38.573742
726.040710	1105.642456	3757.368652	2128.521729	38.574093
726.361938	1102.781738	3763.111572	2126.972900	38.498653
726.683167	1101.319336	3769.628174	2129.597412	38.536697
727.004395	1098.523315	3782.791260	2138.308105	38.736252
727.325500	1098.888916	3802.943848	2144.373291	38.663578
727.646667	1097.361816	3818.666504	2154.460693	38.845295
727.967651	1096.738037	3837.765625	2163.515625	38.918892
728.288635	1095.533569	3854.434570	2171.193604	38.988716
728.609558	1096.609009	3870.242920	2182.700439	39.157707
728.930481	1097.748901	3888.051514	2188.163574	39.078724
729.251282	1097.533813	3895.902100	2191.282227	39.085220
729.572021	1097.856567	3901.946045	2195.368896	39.139706
729.892761	1101.147217	3904.398193	2200.057617	39.201286
730.213440	1103.082886	3907.000244	2204.660400	39.287086
730.534119	1103.125854	3909.043701	2206.574463	39.325760
730.854675	1105.298340	3910.914795	2208.445557	39.319244
731.175171	1103.986328	3916.764893	2207.413086	39.229065
731.495605	1106.180176	3921.561035	2208.875732	39.166836
731.816101	1105.470215	3924.852295	2212.317139	39.258492
732.136475	1105.083130	3927.583008	2214.038086	39.289814
732.456787	1101.405273	3927.024170	2218.941650	39.550144
732.777039	1100.803101	3935.347900	2221.974365	39.553837
733.097229	1101.018066	3941.176758	2226.017822	39.610455
733.417480	1098.867310	3944.983398	2227.437256	39.652981
733.737549	1097.125122	3943.112305	2225.566162	39.650249
734.057617	1098.179077	3932.616455	2219.565186	39.562916
734.377563	1095.189331	3911.086670	2215.478760	39.784454
734.697510	1096.071289	3878.867432	2208.359619	39.970169
735.017517	1093.770020	3843.358398	2195.734131	40.077419
735.337341	1093.189331	3805.761963	2180.786377	40.094669
735.657166	1093.683960	3767.800537	2163.859619	40.019783
735.976868	1096.243286	3729.903076	2147.406006	39.912624
736.296631	1096.479980	3685.919434	2136.135742	40.149837
736.616272	1096.609009	3646.989746	2120.628662	40.151638
736.935852	1094.200195	3613.695068	2109.035400	40.279312
737.255371	1092.995728	3579.648193	2100.754883	40.526741
737.574829	1092.716187	3553.386719	2094.195313	40.699444
737.894348	1093.167847	3539.879150	2090.345215	40.755821
738.213745	1090.952515	3535.707031	2088.301758	40.795479
738.533081	1090.780396	3536.954102	2092.689697	40.958221
738.852356	1092.436523	3542.008545	2096.474854	40.988316
739.171570	1091.425659	3550.095947	2103.464600	41.162041
739.490784	1090.414673	3554.031982	2110.455078	41.404175
739.809937	1089.769409	3559.795898	2113.724121	41.455215
740.129028	1086.263550	3556.870850	2116.670898	41.706638
740.447998	1089.360840	3549.062744	2117.767578	41.810219
740.767029	1089.791016	3542.073242	2115.401855	41.822708
741.085999	1090.866333	3529.534180	2112.605713	41.897438
741.404846	1093.941895	3505.854004	2105.658691	41.946671
741.723633	1096.566040	3479.054688	2098.496582	42.053947
742.042358	1097.619995	3447.330566	2087.893066	42.144474
742.361145	1098.308105	3413.713379	2077.913330	42.308155
742.679810	1098.630737	3378.698242	2065.567871	42.408272
742.998413	1098.071411	3342.435303	2052.039307	42.505047
743.316956	1096.544434	3307.721191	2039.607544	42.649830
743.635498	1100.953491	3277.159180	2029.262207	42.657215
743.953979	1099.835205	3247.563477	2022.659302	42.967453
744.272400	1103.276489	3222.377930	2013.733276	42.964283
744.590698	1101.018066	3197.170166	2006.205811	43.183304
744.909058	1098.652222	3172.715576	1998.764038	43.398472
745.227356	1099.361938	3152.347656	1991.623169	43.461636
745.545471	1099.835083	3136.452881	1987.213989	43.571205
745.863586	1101.706299	3118.794678	1981.148804	43.599602
746.181702	1101.835449	3099.072021	1977.040894	43.820820
746.499756	1105.083130	3085.199463	1978.546143	44.111702
746.817810	1108.782593	3073.305420	1975.513672	44.119167
747.135742	1106.696411	3063.347412	1976.460205	44.451656
747.453613	1107.449097	3057.948975	1974.846924	44.470539
747.771423	1105.448730	3051.646729	1979.965698	44.934635
748.089233	1108.997559	3048.893799	1985.364380	45.175964
748.406982	1110.008545	3053.905273	1992.999634	45.423767
748.724609	1109.685913	3058.378906	2001.280151	45.753448
749.042236	1107.018799	3059.346924	2008.421143	46.170639
749.359863	1104.480957	3064.616455	2020.293457	46.721897
749.677429	1103.362427	3072.724854	2033.628540	47.236919
749.994873	1101.577393	3079.026611	2039.500122	47.430939
750.312256	1100.243896	3083.586182	2050.598389	47.916817
750.629639	1103.491699	3088.361084	2058.491455	48.113983
750.946960	1104.222900	3091.178711	2068.041260	48.507286
751.264282	1104.782104	3090.511719	2074.321777	48.825363
751.581482	1103.943237	3088.726563	2081.763428	49.265842
751.898621	1101.728027	3083.779785	2086.774902	49.698341
752.215698	1100.243774	3078.725586	2093.377686	50.196766
752.532715	1102.738770	3077.456787	2104.562012	50.732471
752.849792	1101.534424	3074.101318	2111.208008	51.185772
753.166748	1101.620483	3069.283447	2117.746338	51.641254
753.483643	1101.469849	3068.767090	2127.876709	52.173450
753.800476	1100.501953	3066.680664	2137.490967	52.741341
754.117310	1095.877808	3065.132568	2149.814697	53.519581
754.434082	1092.780518	3060.593994	2160.934326	54.281254
754.750732	1091.791138	3060.551025	2171.387207	54.836349
755.067383	1092.264404	3061.110352	2181.409912	55.318981
755.383911	1093.511963	3057.410889	2194.422363	56.057384
755.700562	1093.425903	3055.905273	2203.885742	56.584538
756.016968	1093.382935	3049.216309	2211.327637	57.159508
756.333435	1095.490601	3043.925537	2222.554688	57.844585
756.649780	1097.447754	3042.161621	2230.104004	58.242825
756.966064	1096.996094	3042.914795	2242.901367	58.887623
757.282410	1097.017578	3046.441650	2259.075439	59.610317
757.598633	1096.630493	3049.990723	2274.883789	60.319305
757.914795	1100.329956	3059.734131	2291.574219	60.796249
758.230896	1099.577148	3072.273438	2311.597900	61.439804
758.546936	1096.673706	3082.403320	2330.116455	62.115341
758.862976	1095.146606	3093.996094	2350.183350	62.787956
759.178894	1094.221558	3103.352295	2371.196777	63.558594
759.494812	1095.296997	3115.203125	2391.478760	64.170395
759.810669	1094.931274	3124.688232	2411.890381	64.882599
760.126526	1094.027832	3134.172852	2433.785400	65.669724
760.442261	1093.662354	3138.109131	2454.497559	66.562515
760.757935	1092.414917	3141.571777	2468.950928	67.175728
761.073608	1095.877808	3145.593750	2486.092773	67.824768
761.389160	1094.006592	3143.851563	2501.750977	68.675652
761.704712	1095.576538	3141.012451	2515.258057	69.407288
762.020203	1098.351074	3145.658447	2533.195557	70.084465
762.335571	1100.458862	3166.349365	2557.908203	70.548233
762.650940	1102.394653	3207.171631	2606.322754	71.453087
762.966370	1100.329956	3283.697021	2680.375000	72.367355
763.281677	1100.867676	3390.075928	2776.795410	73.209930
763.596863	1098.243652	3507.316162	2881.840820	74.036674
763.911987	1100.415894	3602.295898	2971.766113	74.797768
764.227112	1102.867798	3678.735352	3046.678711	75.462372
764.542236	1103.319458	3740.076416	3104.685791	75.902573
764.857178	1103.685059	3780.877441	3148.454590	76.377388
765.172119	1102.609863	3804.622070	3185.168945	77.074379
765.487061	1099.082397	3818.322754	3210.419434	77.644371
765.801880	1095.899292	3806.385742	3221.195068	78.410133
766.116760	1094.608643	3769.692871	3206.311523	78.939674
766.431458	1094.243042	3686.671875	3155.616943	79.515167
766.746155	1093.124634	3573.044678	3074.725098	79.905823
767.060791	1095.296997	3442.340576	2987.961670	80.640373
767.375427	1094.716309	3328.520264	2904.338135	81.010773
767.689941	1093.232300	3229.862549	2839.039795	81.708450
768.004395	1090.027466	3144.906006	2780.731445	82.277565
768.318848	1087.769165	3074.574463	2733.671875	82.841675
768.633179	1088.134888	3014.631836	2692.096680	83.257950
768.947632	1090.457764	2957.291260	2657.985352	83.967186
769.261841	1091.188965	2908.618408	2624.626465	84.373978
769.576111	1091.877197	2861.257813	2593.181396	84.849136
769.890259	1093.038818	2827.167725	2567.521973	85.027313
770.204285	1094.501221	2789.485596	2547.756348	85.738556
770.518433	1092.630127	2756.814697	2523.602783	85.986412
770.832458	1091.081543	2725.714111	2506.977295	86.618591
771.146362	1090.844849	2697.301758	2488.932129	87.029243
771.460205	1091.619263	2670.524170	2470.392334	87.324646
771.774109	1093.490356	2651.468262	2455.895752	87.447029
772.087952	1094.608765	2632.154053	2443.636230	87.739037
772.401672	1094.888550	2615.657227	2432.344482	87.946045
772.715332	1098.071411	2602.666504	2422.278564	88.010864
773.028992	1098.630737	2589.718506	2412.858154	88.138840
773.342590	1098.049927	2572.082031	2404.835693	88.653816
773.656128	1097.103638	2557.994385	2395.028076	88.844727
773.969604	1099.555664	2543.970947	2387.994873	89.201439
774.283020	1100.200928	2532.851563	2382.166260	89.482063
774.596375	1099.577148	2521.043701	2374.208008	89.670128
774.909729	1100.695557	2507.816162	2372.208008	90.362717
775.223022	1101.900024	2492.523926	2368.142822	91.055733
775.536194	1105.836060	2481.941895	2362.357178	91.309921
775.849304	1105.857544	2466.456055	2354.377686	91.762566
776.162476	1104.674561	2453.142822	2347.279785	92.149384
776.475525	1104.739014	2438.840088	2344.118164	92.899940
776.788513	1105.427246	2430.839111	2341.924561	93.291550
777.101440	1103.857178	2424.859863	2339.020996	93.501991
777.414307	1102.502075	2417.826660	2337.192871	93.869667
777.727173	1100.566406	2414.213379	2333.988281	93.892952
778.039978	1102.781738	2408.384521	2332.245850	94.168312
778.352722	1101.211792	2403.846191	2331.643555	94.457184
778.665405	1098.566284	2402.491455	2325.599854	94.103065
778.977966	1092.823608	2397.759521	2324.115723	94.356522
779.290649	1092.436401	2399.566162	2323.492188	94.180077
779.603149	1092.156860	2396.124756	2323.986816	94.467812
779.915588	1090.328613	2397.006836	2325.664551	94.540176
780.227966	1090.199585	2391.801514	2323.664307	94.765129
780.540405	1090.048950	2385.219971	2322.933105	95.190842
780.852722	1088.307007	2382.596191	2324.288086	95.494972
781.164917	1089.554321	2373.412354	2318.911133	95.754890
781.477173	1089.876953	2365.260742	2315.039307	96.062248
781.789246	1090.737305	2355.926270	2307.554688	96.176727
782.101379	1091.360962	2343.107666	2304.349854	96.903702
782.413452	1092.500977	2335.429199	2299.553711	97.113632
782.725403	1091.683716	2324.244873	2290.025635	97.223732
783.037292	1092.586914	2315.189941	2284.433594	97.484352
783.349182	1094.264648	2301.854980	2271.507324	97.486923
783.661072	1094.049561	2294.843262	2261.763916	97.245209
783.972839	1094.845337	2286.003662	2253.182373	97.244591
784.284546	1096.609009	2271.679443	2239.266602	97.241623
784.596191	1097.211182	2261.699463	2232.577637	97.499176
784.907898	1095.383057	2254.236084	2224.662842	97.448059
785.219421	1096.652100	2247.138428	2219.931152	97.635147
785.530884	1095.189453	2243.331787	2216.274414	97.643379
785.842346	1094.737793	2236.341553	2206.940186	97.424553
786.153748	1096.479858	2227.588135	2205.219482	98.022415
786.465149	1096.845581	2220.232178	2198.379883	98.054787
786.776428	1098.093018	2214.403320	2196.272217	98.375801
787.087646	1100.114746	2210.489014	2196.143311	98.708031
787.398804	1100.028809	2215.650879	2202.896729	98.856766
787.709961	1101.448242	2228.491211	2216.446777	98.931328
788.021057	1103.448486	2243.998535	2235.696533	99.272102
788.332031	1105.255127	2260.581299	2254.515869	99.475006
788.643005	1103.792725	2278.411377	2269.743652	99.262085
788.953918	1105.513306	2290.907715	2282.175293	99.263329
789.264832	1108.137329	2298.671875	2297.230957	99.878967
789.575623	1107.040527	2307.898926	2308.350586	100.037613
789.886353	1104.803589	2315.555664	2318.373291	100.232719
790.197083	1102.480835	2321.470459	2321.599365	100.010574
790.507690	1098.695313	2320.459473	2321.470459	100.082748
790.818359	1099.792236	2312.114258	2313.749023	100.134850
791.128845	1098.394287	2292.391357	2299.661377	100.608879
791.439331	1097.297363	2270.732666	2276.798096	100.516891
791.749756	1095.619629	2247.246338	2254.859863	100.661110
792.060120	1096.092896	2224.662842	2236.363037	101.036728
792.370483	1097.361694	2201.928711	2218.339600	101.485733
792.680786	1093.597778	2184.206055	2200.143555	101.461342
792.990967	1093.619263	2169.795898	2181.625244	101.099197
793.301086	1095.189453	2154.396240	2168.225586	101.305634
793.611267	1093.275269	2141.577393	2156.804932	101.452591
793.921326	1095.254028	2130.070557	2146.997070	101.635704
794.231323	1095.834839	2122.757568	2137.125244	101.399101
794.541260	1097.576782	2120.929443	2130.113525	100.897453
794.851074	1098.308105	2121.144287	2126.392578	100.513115
795.161011	1099.297607	2123.252197	2127.252930	100.390717
795.470764	1099.512573	2126.284912	2132.522217	100.607468
795.780518	1099.598755	2132.049072	2140.802734	100.847855
796.090149	1102.050659	2141.147217	2149.277100	100.782402
796.399780	1099.663208	2146.158447	2158.912842	101.218773
796.709412	1098.458618	2155.600586	2165.903076	100.974564
797.018860	1099.512573	2160.504395	2172.204834	101.102783
797.328308	1100.222412	2166.117920	2177.990234	101.113838
797.637756	1098.953369	2165.515625	2184.033936	101.736259
797.947205	1098.738403	2166.655518	2188.636719	102.058327
798.256470	1097.942505	2161.364502	2191.196289	102.805260
798.565674	1098.243652	2157.278076	2187.195801	102.824997
798.874817	1099.125488	2148.309082	2177.086914	102.742882
799.183960	1098.501831	2141.921387	2166.290039	102.335457
799.493103	1098.480225	2131.447021	2153.686035	102.152924
799.802124	1101.749512	2121.531494	2142.243896	102.031059
800.111084	1102.265503	2105.830811	2129.661621	102.374619
800.419983	1103.319458	2098.023438	2118.843262	102.093071
800.728821	1102.846313	2086.774658	2107.809570	102.137848
801.037659	1104.997070	2080.709473	2098.582764	101.831818
801.346436	1102.781738	2071.482666	2087.763916	101.680733
801.655151	1102.953979	2065.804443	2078.236084	101.291130
801.963745	1103.642090	2057.674316	2068.213379	101.104683
802.272400	1102.201050	2050.490479	2059.201416	100.918594
802.580933	1102.201050	2039.693359	2048.447266	100.933754
802.889404	1100.630981	2028.745972	2043.328491	101.571198
803.197815	1099.082520	2021.282837	2033.843384	101.362022
803.506226	1099.297607	2016.185425	2026.810181	101.158783
803.814575	1100.566528	2007.926147	2022.100098	101.562111
804.122864	1101.190308	2004.979614	2020.615967	101.730087
804.431030	1100.007324	2001.473877	2015.174316	101.519798
804.739197	1102.201172	2001.990112	2015.238770	101.472420
805.047241	1102.416138	2005.754028	2016.550903	101.195221
805.355408	1101.426758	2007.345703	2017.927612	101.168083
805.663391	1099.146973	2007.990601	2019.368408	101.251900
805.971313	1099.168457	2010.550049	2025.003418	101.585876
806.279175	1098.286621	2015.131226	2027.089844	101.304321
806.587036	1097.641479	2015.045410	2029.907471	101.620010
806.894836	1098.566284	2019.046021	2031.154785	101.315483
807.202576	1098.351074	2019.497314	2030.939819	101.242203
807.510193	1096.888550	2016.873535	2028.165161	101.227371
807.817810	1095.210938	2012.937622	2028.165161	101.659264
808.125427	1093.791504	2003.044067	2020.766479	101.949120
808.432922	1094.114136	1993.773804	2011.389038	101.957985
808.740295	1094.587280	1982.503540	2006.055054	102.652451
809.047729	1097.576904	1975.276978	1999.452026	102.754364
809.355103	1097.039185	1967.017944	1989.192627	102.548874
809.662415	1098.329590	1958.005981	1978.782837	102.416824
809.969604	1100.652466	1948.585449	1972.265991	102.792740
810.276794	1098.867310	1934.863403	1962.028198	103.249390
810.583923	1098.996460	1925.744141	1955.855347	103.642128
810.890991	1101.254761	1915.011597	1949.725464	104.265877
811.197998	1102.093628	1908.214844	1938.605591	103.769997
811.505005	1103.018433	1904.429321	1932.002686	103.440605
811.811829	1101.706421	1894.557129	1926.496582	104.028435
812.118713	1101.899902	1888.190918	1916.968750	103.659950
812.425537	1099.835205	1879.695313	1910.839111	103.993507
812.732300	1098.222168	1872.963257	1904.752075	104.103157
813.038940	1097.684448	1866.187988	1900.493652	104.463959
813.345581	1098.845825	1863.585571	1892.062500	103.723740
813.652100	1099.060913	1860.918823	1890.255737	103.850708
813.958740	1097.426270	1856.810913	1883.781738	103.551666
814.265137	1096.953125	1852.681152	1877.157349	103.238754
814.571533	1097.921021	1844.830811	1876.834473	104.284813
814.877930	1098.329590	1838.356934	1873.113647	104.696678
815.184265	1099.039429	1836.184448	1871.457764	104.785126
815.490540	1097.770386	1834.356323	1873.974121	105.378571
815.796692	1097.254150	1834.635864	1874.920288	105.463173
816.102844	1099.211426	1837.539551	1877.565918	105.421219
816.408936	1100.523438	1839.324341	1876.684082	105.056808
816.714966	1099.211426	1841.475098	1879.781250	105.160721
817.020935	1100.673950	1842.270996	1881.286743	105.261047
817.326843	1103.964722	1845.712402	1884.319458	105.204880
817.632690	1102.158081	1852.294067	1887.309082	104.667824
817.938477	1101.835449	1856.961304	1891.954956	104.634148
818.244263	1101.792480	1867.629272	1900.988159	104.355873
818.549988	1100.760010	1873.328857	1906.601685	104.306778
818.855652	1103.470093	1885.846558	1913.742554	103.565544
819.161194	1103.706665	1902.515503	1928.260254	103.222893
819.466797	1103.771118	1925.163330	1953.381714	103.435432
819.772278	1103.255005	1952.435425	1984.783325	103.809311
820.077698	1102.738770	1988.138794	2023.713013	104.017868
820.383057	1101.813843	2028.810669	2066.578613	104.074226
820.688354	1098.673706	2080.752441	2123.596436	104.362579
820.993652	1101.663330	2157.772705	2204.079590	104.384666
821.298828	1101.684814	2304.586670	2358.980225	104.521858
821.604004	1100.630981	2572.469482	2645.574951	104.966949
821.909058	1099.835205	2981.638184	3074.552979	104.937538
822.214111	1096.953125	3465.762695	3590.229736	105.254410
822.519165	1097.985474	3929.153320	4079.645264	105.315536
822.824036	1096.824097	4320.793457	4490.642578	105.268326
823.128906	1095.361450	4639.757813	4827.479980	105.296310
823.433716	1096.178833	4895.488281	5096.266113	105.284584
823.738525	1094.673340	5104.998047	5312.701172	105.179207
824.043213	1094.049683	5264.351074	5482.787109	105.237892
824.347900	1090.887817	5364.987793	5597.596680	105.442291
824.652466	1090.414551	5375.397949	5606.565918	105.394836
824.957031	1093.103149	5241.897461	5460.289551	105.263992
825.261536	1093.318237	4947.731445	5156.401855	105.413803
825.565979	1093.167725	4563.447266	4743.297363	105.182579
825.870300	1095.705688	4180.711426	4340.193359	105.169586
826.174622	1097.125122	3872.071045	4015.056885	105.152740
826.478821	1098.157593	3660.776367	3788.448242	104.982086
826.783142	1096.867188	3533.771240	3651.828857	104.844574
827.087280	1097.469482	3464.859375	3576.916260	104.733353
827.391357	1099.361938	3414.552246	3519.640625	104.539078
827.695435	1101.211670	3371.278320	3465.978027	104.171669
827.999451	1102.416138	3325.917725	3416.036133	104.053009
828.303406	1102.179565	3276.857910	3367.363525	104.161804
828.607239	1101.964478	3237.540771	3316.088135	103.678040
828.911011	1102.459106	3190.309326	3270.361816	103.834221
829.214844	1099.942749	3143.464844	3221.496094	103.818466
829.518616	1098.609375	3076.682617	3152.497803	103.832779
829.822205	1098.781372	2972.583496	3042.161865	103.713219
830.125793	1098.673706	2829.640869	2896.746094	103.876747
830.429382	1099.168457	2664.308838	2725.563477	103.913681
830.732849	1098.824341	2509.278564	2563.737061	103.861061
831.036316	1096.824097	2377.025635	2424.515381	103.709549
831.339661	1096.651978	2268.861816	2310.157227	103.522865
831.642944	1093.748413	2178.850830	2214.188232	103.256599
831.946228	1096.286377	2102.174561	2137.060303	103.468155
832.249512	1098.222046	2045.307129	2077.311035	103.379204
832.552673	1099.082275	2010.528564	2039.048340	103.129066
832.855774	1102.932373	1996.849487	2028.444824	103.534485
833.158813	1104.997192	2013.561401	2050.447510	104.059822
833.461731	1103.921753	2059.653076	2098.109131	104.023727
833.764771	1103.900269	2119.768066	2167.687744	104.717117
834.067627	1103.104492	2185.711914	2237.266357	104.762062
834.370422	1102.975464	2241.912354	2300.327881	105.128952
834.673157	1101.663452	2288.176025	2354.334717	105.575897
834.975891	1101.900024	2330.245850	2397.114258	105.443779
835.278564	1098.308105	2362.443115	2429.419189	105.298172
835.581177	1096.910156	2382.402588	2448.454102	105.138229
835.883728	1095.985229	2384.703857	2453.960205	105.374046
836.186218	1092.802002	2366.636963	2433.527344	105.251106
836.488647	1090.307129	2323.083252	2387.629150	105.235817
836.791077	1092.092285	2254.881348	2316.953857	105.338242
837.093384	1090.586792	2176.441650	2229.652588	104.900375
837.395630	1090.737305	2090.258789	2143.599121	105.336586
837.697815	1093.017090	2016.034790	2063.266357	105.117081
838.000061	1094.286255	1949.897705	1988.612061	104.524757
838.302124	1096.006714	1888.363281	1924.410522	104.549370
838.604126	1098.996338	1832.979980	1870.038208	105.048920
838.906128	1098.566284	1788.243042	1824.032471	105.189308
839.208069	1100.910645	1753.615112	1787.210571	105.147118
839.510010	1100.050293	1732.945801	1763.809814	104.876640
839.811829	1101.061157	1722.105835	1749.678955	104.439796
840.113586	1101.985962	1716.105103	1742.925415	104.367279
840.415222	1102.351685	1711.566895	1740.796143	104.797852
840.716919	1102.050537	1712.921875	1737.161377	103.968018
841.018555	1100.630981	1710.857056	1736.451660	104.194283
841.320068	1100.523560	1709.136353	1737.139893	104.601212
841.621521	1097.641357	1705.630737	1736.171997	105.023323
841.922974	1097.512329	1703.781128	1733.440552	104.892128
842.224365	1096.221802	1698.167480	1728.601440	105.055931
842.525635	1095.727173	1688.209351	1716.599731	104.791771
842.826965	1097.619873	1671.691040	1698.726563	104.709435
843.128174	1098.673706	1646.139526	1672.723389	104.855804
843.429260	1097.447754	1618.781250	1643.988647	104.835175
843.730408	1101.663208	1595.208496	1613.877441	103.782623
844.031433	1103.362427	1574.797241	1589.229248	103.061295
844.332397	1105.384277	1555.224976	1568.065186	102.854393
844.633362	1105.083130	1538.384277	1547.396118	102.079811
844.934204	1106.029419	1523.844604	1529.759399	101.415649
845.235046	1107.234009	1509.713989	1512.617554	100.721420
845.535828	1108.266357	1497.755371	1497.669556	99.977966
845.836487	1108.546021	1485.108521	1482.334351	99.263290
846.137146	1107.642700	1474.763428	1466.676514	97.797203
846.437744	1105.556396	1465.708496	1457.427979	97.700829
846.738281	1105.147583	1457.642944	1449.384033	97.657013
847.038757	1102.179565	1449.856934	1444.996338	98.601982
847.339172	1099.749146	1439.275024	1439.210449	99.980980
847.639526	1098.329590	1433.338867	1434.629395	100.385223
847.939819	1097.748901	1427.101563	1429.682495	100.783638
848.240112	1097.512207	1421.896606	1426.499146	101.418854
848.540283	1096.479980	1416.369141	1421.616943	101.640503
848.840393	1097.533813	1413.573120	1419.681152	101.932678
849.140564	1094.888428	1410.583374	1419.788818	102.915932
849.440552	1096.888672	1405.034302	1419.337036	104.641548
849.740540	1097.082153	1402.818970	1417.767090	104.889214
850.040405	1098.910400	1400.259644	1414.153809	104.610649
850.340210	1097.985596	1397.183838	1412.841797	105.233307
850.640137	1098.695435	1395.613770	1409.959717	104.831612
850.939819	1098.652344	1392.194092	1403.571777	103.875999
851.239502	1096.910156	1388.193481	1399.850830	104.002068
851.539185	1096.178955	1387.333130	1396.215942	103.050896
851.838745	1095.748779	1385.676880	1396.732178	103.813118
852.138245	1094.458130	1379.504272	1393.570435	104.934700
852.437744	1095.920776	1376.944824	1392.344604	105.479881
852.737122	1094.608643	1377.912598	1389.677612	104.152786
853.036499	1095.641113	1375.912354	1388.924805	104.642807
853.335815	1094.802246	1372.449585	1387.247192	105.329643
853.635010	1095.963623	1369.954712	1383.633911	104.992569
853.934204	1095.899170	1371.395630	1382.665894	104.090889
854.233276	1095.985229	1372.707886	1383.827393	104.018288
854.532410	1095.791748	1372.428223	1382.343384	103.584183
854.831482	1096.157349	1368.943848	1380.644287	104.289230
855.130371	1094.974487	1366.298340	1377.977173	104.304390
855.429260	1096.049927	1364.212158	1375.396118	104.170593
855.728088	1094.479736	1360.727783	1370.858154	103.804863
856.026855	1094.221558	1355.888550	1369.524536	105.211197
856.325623	1094.264526	1354.361450	1365.674561	104.349571
856.624329	1094.737793	1354.124878	1365.072388	104.220528
856.922913	1095.124878	1352.404175	1362.340942	103.862251
857.221436	1097.426270	1348.661743	1357.996216	103.715431
857.519958	1097.727417	1345.715088	1353.285889	103.052895
857.818420	1097.942383	1343.327759	1352.275146	103.646263
858.116821	1099.856567	1341.951172	1350.769531	103.642525
858.415161	1102.179565	1343.241699	1348.102539	102.016426
858.713379	1102.738770	1342.553589	1347.930420	102.242073
859.011658	1107.018799	1343.542847	1349.091919	102.346092
859.309814	1108.115723	1343.306274	1347.908936	101.956993
859.607910	1107.470581	1341.456543	1347.371216	102.527786
859.905945	1108.868652	1340.897339	1346.317261	102.335884
860.203979	1107.707153	1340.209106	1344.704224	101.933365
860.501953	1107.879272	1338.531494	1341.994263	101.501297
860.799744	1107.707153	1335.713989	1341.391968	102.490265
861.097656	1109.642822	1335.950439	1337.886230	100.855377
861.395325	1109.513794	1336.337646	1335.262207	99.525871
861.693115	1108.416870	1335.090088	1335.434326	100.151863
861.990784	1108.804199	1335.434326	1334.251465	99.478065
862.288330	1107.384521	1333.261963	1333.154419	99.952385
862.585815	1104.739136	1334.401855	1332.530762	99.185287
862.883301	1106.244629	1334.294434	1331.283325	98.679626
863.180786	1106.072632	1332.702881	1330.487427	99.022438
863.478149	1107.018799	1330.745605	1330.121704	99.721130
863.775452	1105.319824	1330.272339	1332.487671	100.984802
864.072693	1108.072876	1331.455200	1331.046753	99.817154
864.369873	1109.750366	1331.390747	1334.079224	101.212990
864.667114	1108.997681	1328.680664	1336.230103	103.436516
864.964111	1108.223511	1327.970947	1336.402222	103.836800
865.261169	1106.653198	1327.347168	1336.316162	104.063995
865.558105	1105.190796	1328.938843	1334.875122	102.653107
865.855042	1105.362793	1327.261230	1335.197754	103.576645
866.151917	1103.878662	1326.099731	1334.401855	103.735977
866.448730	1100.652466	1325.863159	1333.111328	103.218391
866.745422	1102.373047	1327.454590	1330.982178	101.567245
867.042114	1100.781616	1327.583862	1331.025269	101.517357
867.338806	1096.609009	1324.422241	1332.702759	103.634781
867.635376	1094.673218	1321.066895	1331.326294	104.531662
867.931824	1096.458496	1322.765991	1328.680786	102.613609
868.228271	1096.781128	1320.077515	1327.970947	103.534958
868.524658	1096.307861	1319.561401	1327.798950	103.689774
868.821045	1098.824341	1318.120361	1328.014038	104.511566
869.117310	1098.458618	1315.474731	1327.390381	105.490677
869.413574	1096.888550	1314.958740	1326.078247	105.099052
869.709717	1097.856567	1312.205566	1324.336060	105.659225
870.005859	1095.038940	1308.957886	1326.594482	108.244522
870.301880	1096.437012	1308.463257	1324.120972	107.384804
870.597900	1095.490601	1308.334106	1325.755737	108.185181
870.893860	1095.813232	1311.990479	1324.830933	105.939781
871.189636	1092.371948	1311.753906	1324.873901	105.980438
871.485535	1092.845093	1311.108643	1323.841431	105.833679
871.781311	1092.006348	1310.269897	1322.916626	105.794250
872.077026	1090.264160	1310.700073	1321.712036	104.995537
872.372681	1091.963379	1311.818481	1322.185303	104.715294
872.668274	1093.210815	1312.807861	1324.013550	105.102844
872.963806	1092.715942	1314.592896	1324.486816	104.459190
873.259338	1093.275269	1318.679565	1323.992065	102.356873
873.554688	1093.812988	1319.346191	1327.325806	103.538109
873.850098	1096.695190	1320.507813	1324.400635	101.739319
874.145447	1096.501465	1318.335449	1325.325562	103.151054
874.440674	1100.265503	1317.582520	1324.615723	103.236382
874.735840	1099.362183	1320.335693	1327.132202	103.075714
875.031006	1101.577393	1323.110107	1327.433350	101.951515
875.326050	1100.437378	1323.970581	1328.422607	101.991661
875.621094	1101.190186	1325.389893	1329.132568	101.669350
875.916077	1103.599121	1325.583618	1328.895996	101.492165
876.210999	1106.502686	1326.917114	1330.681030	101.707657
876.505798	1107.363037	1322.895142	1330.358521	103.462769
876.800598	1106.997192	1321.776855	1328.788330	103.264496
877.095337	1104.007690	1322.077881	1329.691650	103.491432
877.390015	1106.201538	1323.088745	1329.627075	103.014626
877.684692	1105.728516	1322.335938	1332.186523	104.547668
877.979187	1107.470581	1319.884033	1330.207886	104.860260
878.273804	1105.534790	1319.862549	1330.939087	105.168037
878.568237	1106.136963	1322.701660	1333.563110	105.015335
878.862610	1103.061401	1325.884766	1334.961060	104.073311
879.156921	1100.889160	1330.896118	1339.972534	103.946152
879.451172	1098.071533	1337.219604	1344.274048	102.949821
879.745422	1098.759888	1348.382202	1353.328979	101.981705
880.039612	1097.555298	1361.480591	1367.459717	102.265465
880.333679	1098.587769	1381.999146	1388.408569	102.261528
880.627686	1097.017578	1415.164673	1421.057739	101.852310
880.921692	1096.221802	1469.020752	1477.365723	102.238464
881.215698	1096.350830	1556.386353	1568.624268	102.660210
881.509460	1099.362183	1671.239380	1694.618408	104.088120
881.803345	1099.469604	1812.289063	1844.615601	104.535027
882.097046	1101.512817	1959.898804	2003.796509	105.113983
882.390808	1102.115112	2098.131104	2152.374023	105.445992
882.684448	1103.685059	2225.781250	2285.336914	105.307533
882.978027	1101.082642	2336.439941	2403.373047	105.418114
883.271545	1102.566772	2432.086426	2501.320557	105.207451
883.565002	1103.147583	2508.117432	2582.599609	105.301338
883.858398	1102.588379	2560.855225	2640.112061	105.435005
884.151733	1101.211670	2581.567383	2659.490723	105.263824
884.445068	1100.846069	2557.413818	2633.057617	105.193291
884.738281	1099.233032	2489.964600	2558.209473	104.907120
885.031433	1099.168335	2383.198486	2447.163330	104.981567
885.324585	1100.738403	2262.624268	2316.373047	104.625992
885.617676	1098.738281	2142.071777	2186.830322	104.289955
885.910645	1097.576904	2026.401489	2068.578857	104.540939
886.203552	1099.168457	1921.829590	1958.178101	104.418404
886.496521	1099.942749	1824.979004	1857.197998	104.443779
886.789368	1100.673950	1740.645996	1765.165161	103.831284
887.082153	1102.760254	1661.023071	1682.574219	103.860397
887.374817	1103.728149	1595.316040	1614.651611	103.933289
887.667480	1103.577637	1537.825073	1554.730347	103.893005
887.960083	1104.222900	1492.916382	1507.606201	103.779282
888.252625	1103.642212	1455.427734	1466.461426	103.136482
888.545166	1103.190552	1428.241699	1438.866577	103.268677
888.837524	1105.599487	1404.969849	1414.627075	103.225845
889.129883	1107.255493	1386.171875	1393.119019	102.490761
889.422241	1106.696411	1371.417358	1374.342529	101.105003
889.714478	1093.511841	1322.292847	1334.595459	105.377464
890.006714	1107.707153	1357.544556	1362.986084	102.178024
890.298767	1110.072998	1317.324585	1321.109985	101.826477
890.590881	1113.858398	1319.453735	1309.990356	95.397087
890.882935	1094.694824	1328.207642	1305.495117	90.273544
>>>>>End Processed Spectral Data<<<<<
