Jaz Data File
++++++++++++++++++++++++++++++++++++
Date: Mon Apr 22 19:27:39 2019
User: jaz
Dark Spectrum Present: Yes
Reference Spectrum Present: Yes
Processed Spectrum Present: Yes
Spectrometers: JAZA2928
Integration Time (usec): 40000 (JAZA2928)
Spectra Averaged: 10 (JAZA2928)
Boxcar Smoothing: 5 (JAZA2928)
Correct for Electrical Dark: No (JAZA2928)
Strobe/Lamp Enabled: Yes (JAZA2928)
Correct for Detector Non-linearity: No (JAZA2928)
Correct for Stray Light: No (JAZA2928)
Number of Pixels in Processed Spectrum: 2048
>>>>>Begin Processed Spectral Data<<<<<
W	D	R	S	P
190.104553	0.000000	0.000000	0.000000	0.000000
190.488098	0.000000	0.000000	0.000000	0.000000
190.871613	1077.423828	1084.994751	1065.357788	-159.373444
191.255096	1080.499390	1079.079956	1069.853027	750.043030
191.638535	0.000000	0.000000	0.000000	0.000000
192.021942	903.294739	908.865295	890.992188	-220.849579
192.405334	1004.317993	1010.039124	992.768188	-201.879761
192.788696	1107.599609	1112.288330	1090.715820	-360.093719
193.172012	1111.471069	1116.052246	1095.813232	-341.786346
193.555313	1116.138306	1118.654663	1102.179565	-554.720093
193.938568	1122.375488	1122.956299	1106.201660	-2784.699463
194.321793	1125.386597	1126.505127	1112.718628	-1132.554810
194.704987	1126.655640	1129.473267	1116.676025	-354.185089
195.088150	1127.429810	1129.387207	1118.375122	-462.588074
195.471298	1126.505249	1131.710083	1122.375610	-79.342369
195.854401	1127.494629	1132.054199	1124.096191	-74.534164
196.237457	1129.064575	1128.957031	1123.451050	5219.750488
196.620499	1129.043091	1130.441040	1122.870239	-441.564789
197.003494	1127.171875	1130.140137	1126.075073	-36.950977
197.386475	1126.999878	1131.129395	1125.580200	-34.378788
197.769424	1126.419067	1132.441406	1123.838135	-42.855984
198.152344	1123.365112	1134.527832	1121.880859	-13.296517
198.535217	1120.934570	1135.947266	1117.858887	-20.487217
198.918076	1121.149658	1138.098022	1117.643677	-20.686253
199.300903	1121.838013	1139.668091	1117.815796	-22.558605
199.683670	1123.838257	1144.421387	1116.955444	-33.439095
200.066422	1123.730591	1145.023560	1116.396362	-34.444366
200.449142	1121.967041	1147.884277	1117.966431	-15.436099
200.831848	1122.719849	1149.174683	1119.988159	-10.325861
201.214508	1123.537109	1149.002686	1118.547241	-19.594563
201.597137	1122.891846	1150.120972	1117.772949	-18.799341
201.979736	1122.612183	1152.874146	1117.901855	-15.565174
202.362274	1122.633789	1149.088623	1118.633179	-15.122417
202.744827	1121.257202	1147.625977	1116.632935	-17.536907
203.127319	1119.171021	1146.055908	1115.041382	-15.360446
203.509796	1116.525513	1142.786621	1114.116455	-9.173480
203.892227	1113.406860	1136.872070	1109.879395	-15.032747
204.274643	1110.567749	1137.151489	1106.524292	-15.210264
204.657013	1110.804321	1134.850342	1104.050781	-28.085896
205.039352	1108.223389	1132.441406	1101.469849	-27.886429
205.421661	1104.932617	1135.796753	1103.018433	-6.201971
205.803940	1103.964722	1135.516968	1103.061401	-2.862935
206.186188	1103.771118	1133.344727	1098.114502	-19.127243
206.568405	1101.921387	1134.248169	1095.877808	-18.695271
206.950592	1103.297974	1136.119263	1097.297241	-18.283049
207.332748	1101.340698	1133.882446	1096.178833	-15.862287
207.714859	1099.964233	1136.269775	1096.630493	-9.182455
208.096939	1099.598511	1137.732422	1098.415649	-3.101862
208.478989	1098.695190	1137.280762	1099.964355	3.289222
208.861008	1098.931763	1138.291626	1101.856934	7.431862
209.243011	1099.318848	1140.765137	1100.824463	3.632690
209.624969	1098.652222	1139.410034	1100.136230	3.641041
210.006897	1098.480103	1140.377808	1100.609497	5.082366
210.388794	1097.469238	1141.345703	1102.674316	11.863029
210.770645	1097.426270	1141.603882	1104.653076	16.358526
211.152481	1097.146606	1140.549927	1104.954224	17.988525
211.534286	1097.404785	1143.152344	1105.986572	18.759007
211.916061	1097.490723	1141.238159	1103.169067	12.979835
212.297791	1097.985474	1142.119995	1102.975464	11.306320
212.679489	1097.125122	1143.195435	1104.437988	15.873273
213.061157	1093.662354	1142.313599	1105.083252	23.475039
213.442795	1093.812988	1142.786743	1106.868408	26.657993
213.824402	1094.071167	1142.829712	1107.212524	26.951906
214.205963	1094.823730	1141.496216	1105.728516	23.364483
214.587524	1093.705444	1141.195190	1107.578125	29.211950
214.969025	1094.952881	1142.937378	1106.051147	23.128859
215.350510	1093.554932	1145.948486	1105.578003	22.947615
215.731949	1092.823730	1144.572021	1105.405762	24.313908
216.113358	1092.221558	1147.841309	1107.406128	27.300680
216.494736	1093.361328	1147.239014	1107.793091	26.786160
216.876083	1093.124878	1145.324707	1108.094238	28.677029
217.257401	1094.823975	1146.765747	1106.782349	23.022654
217.638702	1094.910034	1149.389771	1105.556274	19.541651
218.019943	1095.791748	1151.841553	1105.857422	17.958447
218.401169	1094.006592	1152.142700	1107.233887	22.752289
218.782349	1094.372070	1154.788208	1108.180176	22.854996
219.163498	1094.436646	1158.272583	1110.696777	25.471752
219.544632	1098.286621	1158.659668	1111.600098	22.052021
219.925705	1102.416138	1162.423584	1111.944214	15.878157
220.306778	1103.104370	1163.929199	1114.417725	18.599895
220.687805	1101.082520	1168.661011	1112.847656	17.409588
221.068802	1101.770996	1176.640503	1112.309937	14.076412
221.449738	1101.985840	1182.598145	1112.869141	13.500793
221.830673	1099.340454	1186.620117	1114.417603	17.274527
222.211563	1098.394043	1191.932617	1114.761841	17.498447
222.592438	1098.759766	1200.084106	1115.729614	16.748047
222.973267	1099.060913	1206.730225	1117.471802	17.099476
223.354065	1097.727417	1211.655518	1120.547363	20.030130
223.734848	1093.791382	1217.828369	1121.967041	22.715530
224.115555	1090.436157	1228.302734	1124.590942	24.773796
224.496262	1092.694458	1238.497559	1127.516113	23.882658
224.876923	1092.178223	1246.498535	1133.409180	26.717777
225.257568	1091.016846	1255.639526	1137.044067	27.959223
225.638168	1088.113281	1265.554688	1140.894043	29.745459
226.018723	1090.479248	1277.147583	1147.389526	30.487377
226.399277	1092.328735	1291.923462	1152.529785	30.161644
226.779785	1094.759277	1309.861206	1162.746216	31.606848
227.160263	1093.726929	1333.046875	1169.650391	31.724670
227.540695	1093.103149	1363.351685	1178.382690	31.555967
227.921112	1091.984741	1408.217529	1193.201660	32.007092
228.301483	1092.501099	1466.525879	1213.978394	32.478409
228.681824	1092.006348	1543.460083	1238.454590	32.439259
229.062134	1095.339966	1631.212891	1267.619385	32.149303
229.442413	1095.404419	1713.438232	1297.257446	32.660515
229.822647	1099.469604	1782.349976	1320.550781	32.374802
230.202881	1100.846069	1832.011841	1336.015015	32.163559
230.583054	1100.674072	1871.651245	1348.704834	32.170959
230.963196	1098.372681	1904.106934	1356.383179	32.021786
231.343292	1097.576782	1930.819946	1362.964722	31.849998
231.723404	1097.146606	1946.348755	1367.524292	31.839025
232.103439	1098.372681	1940.670654	1366.147827	31.791023
232.483459	1098.630737	1913.054321	1354.942139	31.471510
232.863434	1096.802612	1867.650757	1337.477539	31.222094
233.243393	1091.662109	1814.934814	1317.088013	31.167484
233.623306	1092.909668	1767.294434	1297.709106	30.368338
234.003174	1092.242920	1737.763672	1288.675903	30.430159
234.383041	1089.382324	1724.880371	1280.438354	30.063984
234.762848	1090.930786	1717.675293	1278.932739	29.996586
235.142639	1091.855591	1711.932495	1275.749512	29.656631
235.522385	1094.135498	1708.491089	1276.072144	29.614225
235.902115	1095.834839	1710.212036	1276.265625	29.368080
236.281799	1095.641113	1716.384766	1278.416504	29.444584
236.661438	1096.178833	1729.009888	1285.191528	29.867798
237.041077	1095.576660	1740.946899	1288.675781	29.920673
237.420654	1098.458618	1747.033569	1291.988159	29.839195
237.800217	1097.963989	1755.550659	1293.020508	29.662481
238.179733	1098.351074	1761.530029	1290.869629	29.029654
238.559219	1100.372925	1769.509644	1292.590332	28.726179
238.938690	1098.265137	1782.220703	1294.827148	28.739002
239.318100	1096.630493	1800.158325	1297.171509	28.505058
239.697510	1097.017578	1821.687988	1302.096802	28.299654
240.076859	1097.168091	1847.260986	1306.269287	27.876707
240.456177	1098.178955	1891.976440	1314.980103	27.311897
240.835464	1096.651855	1948.263184	1325.368530	26.856932
241.214722	1097.275757	2024.745728	1345.026855	26.712574
241.593948	1097.963989	2132.092285	1371.847412	26.484472
241.973129	1097.856567	2259.333740	1407.701294	26.676781
242.352295	1097.297363	2406.750000	1448.781616	26.842075
242.731415	1097.856323	2553.327148	1487.517578	26.772179
243.110519	1095.877686	2674.417480	1521.629395	26.971237
243.489578	1095.877686	2769.440186	1547.460571	26.983330
243.868607	1096.049805	2835.943115	1565.742310	26.995478
244.247604	1097.684448	2886.035156	1582.497192	27.109489
244.626541	1098.910278	2917.953125	1592.605957	27.140409
245.005493	1099.792114	2945.719727	1602.757813	27.247314
245.384369	1100.114868	2970.948975	1609.791016	27.243258
245.763229	1100.609497	2998.909180	1619.512451	27.335144
246.142059	1102.760254	3052.937500	1634.245605	27.253181
246.520859	1102.351685	3154.261475	1658.592651	27.108454
246.899612	1100.889038	3308.366943	1697.436279	27.023926
247.278336	1101.942993	3494.518799	1742.366455	26.767115
247.657043	1102.394653	3664.540039	1786.672974	26.707239
248.035690	1101.405273	3803.309570	1824.226196	26.752277
248.414322	1100.867676	3921.002197	1851.562500	26.619114
248.792908	1099.297607	4008.367432	1874.404175	26.644482
249.171478	1099.835205	4061.642822	1887.545654	26.595598
249.550003	1101.104126	4068.827148	1892.148438	26.654922
249.928482	1100.588013	4035.661621	1881.824585	26.617273
250.306961	1099.620117	3942.724854	1854.509277	26.551579
250.685364	1099.362061	3780.747803	1812.353516	26.590410
251.063782	1100.652466	3577.324951	1759.207031	26.590298
251.442123	1101.168701	3379.536865	1706.146606	26.553123
251.820450	1102.416138	3241.261963	1671.884399	26.625029
252.198761	1102.201050	3168.177490	1648.784790	26.456434
252.576996	1101.276245	3111.740479	1634.288574	26.511904
252.955246	1101.921509	3063.153809	1621.577271	26.496389
253.333420	1101.039673	3017.792969	1608.672363	26.483986
253.711578	1100.437500	2990.306152	1596.606323	26.254143
254.089706	1100.308472	2965.872803	1589.444214	26.219183
254.467804	1098.716675	2948.537354	1585.164185	26.297009
254.845871	1099.856567	2933.202148	1581.464844	26.269367
255.223877	1098.996338	2907.005371	1574.625122	26.306770
255.601898	1100.480347	2870.334229	1566.538208	26.333126
255.979828	1098.265137	2818.026367	1550.278198	26.283478
256.357727	1098.630737	2763.826172	1536.427002	26.290983
256.735657	1098.480225	2741.457764	1528.469116	26.171318
257.113525	1098.071411	2758.492432	1529.006714	25.953375
257.491333	1098.480347	2812.197754	1543.460083	25.965759
257.869110	1097.835083	2891.799072	1565.548828	26.071524
258.246887	1097.684448	3007.146729	1592.369263	25.907022
258.624573	1097.232788	3174.092285	1633.729248	25.832104
259.002289	1097.275757	3402.142090	1690.962158	25.757956
259.379944	1098.566284	3704.265625	1768.520264	25.711102
259.757538	1098.415649	4068.052490	1859.606689	25.632463
260.135162	1099.318970	4428.032715	1949.123413	25.529512
260.512665	1100.760010	4715.939453	2023.153931	25.514471
260.890228	1099.792114	4904.715332	2070.342773	25.507759
261.267700	1101.147095	5016.622070	2100.711914	25.528570
261.645142	1101.942871	5083.039063	2116.219238	25.477314
262.022552	1103.211914	5120.677734	2123.962158	25.407814
262.399994	1102.717285	5125.904297	2123.962158	25.383978
262.777313	1103.857178	5080.715820	2111.874756	25.347080
263.154602	1104.911011	4961.216309	2081.698730	25.329628
263.531921	1102.824707	4760.159180	2026.573730	25.257439
263.909149	1102.459106	4480.791504	1953.338745	25.186378
264.286377	1101.491333	4192.583984	1881.545044	25.235533
264.663574	1099.878174	3972.277100	1819.150269	25.040815
265.040710	1101.921509	3845.767090	1786.931152	24.965313
265.417816	1099.168457	3795.782227	1772.692871	24.976673
265.794891	1099.340576	3797.803955	1771.531250	24.910128
266.171936	1099.104004	3841.508057	1777.510498	24.737656
266.548950	1099.921265	3899.708740	1789.038940	24.613213
266.925934	1101.383789	3954.425049	1801.728638	24.547308
267.302887	1100.329834	4020.368896	1812.267578	24.381104
267.679810	1102.308594	4091.776367	1831.474121	24.391150
268.056671	1102.652710	4176.216797	1849.519531	24.299700
268.433502	1101.749512	4266.658203	1866.812134	24.173292
268.810333	1101.684814	4350.517578	1889.976074	24.263830
269.187073	1099.039429	4426.677734	1907.225464	24.287077
269.563843	1101.362305	4488.276855	1919.055054	24.142704
269.940521	1100.588013	4541.895996	1926.453857	23.998602
270.317200	1099.899780	4605.710449	1942.778442	24.042334
270.693848	1099.146973	4713.035645	1969.383667	24.080341
271.070435	1097.705933	4884.304199	2008.076660	24.041916
271.447021	1095.856323	5082.371582	2052.985596	24.009172
271.823547	1093.920532	5251.705078	2086.817627	23.880436
272.200043	1092.931152	5382.043457	2116.133057	23.855797
272.576538	1096.501465	5496.100098	2143.405518	23.795444
272.952972	1096.630493	5606.415527	2166.762939	23.729122
273.329346	1099.641602	5698.835449	2185.453613	23.608746
273.705688	1097.490723	5766.155762	2197.927979	23.570705
274.082062	1094.221558	5809.837891	2205.972168	23.575935
274.458344	1094.049438	5806.568848	2202.918213	23.530273
274.834595	1093.060059	5748.755371	2189.432617	23.549061
275.210846	1093.748413	5652.141113	2163.300537	23.463362
275.587006	1095.361572	5538.041016	2136.544434	23.435921
275.963165	1096.135864	5473.688965	2122.026367	23.435249
276.339294	1095.920898	5444.265625	2116.219482	23.464069
276.715393	1094.329224	5440.265137	2111.616699	23.407787
277.091461	1093.942017	5437.361816	2110.089600	23.395103
277.467438	1092.931152	5444.867676	2108.734375	23.341408
277.843445	1094.372192	5460.289551	2114.734863	23.371094
278.219452	1097.361816	5481.604004	2120.628174	23.339640
278.595337	1097.275757	5513.521484	2127.338867	23.324408
278.971191	1097.318726	5547.805664	2131.274658	23.232424
279.347046	1096.716553	5572.969727	2137.770508	23.257263
279.722870	1095.727051	5607.189453	2142.975098	23.213051
280.098663	1096.953125	5631.234863	2147.040039	23.158836
280.474396	1098.222168	5683.004883	2156.073730	23.073101
280.850098	1099.727539	5749.679688	2169.774414	23.011997
281.225800	1099.770630	5852.595703	2189.647705	22.931141
281.601440	1099.125488	5983.816895	2221.909912	22.985781
281.977051	1098.996338	6153.665527	2256.817383	22.905972
282.352600	1100.265503	6314.695801	2291.789307	22.850508
282.728149	1102.996948	6448.454590	2320.502441	22.776451
283.103668	1104.007935	6547.198242	2343.322510	22.768166
283.479156	1102.588379	6633.079590	2357.905029	22.698105
283.854553	1102.502319	6720.380859	2375.950195	22.667772
284.229950	1098.480347	6819.877930	2401.501709	22.774530
284.605347	1096.501587	6916.750000	2422.407471	22.780914
284.980652	1094.888428	7007.728516	2442.560547	22.792299
285.355988	1092.500977	7095.331055	2460.111084	22.782755
285.731201	1094.243042	7173.210938	2471.166260	22.650608
286.106445	1094.888428	7234.551758	2481.490479	22.584335
286.481659	1094.802368	7309.464355	2494.889893	22.528780
286.856781	1091.490112	7380.248047	2506.805176	22.505480
287.231934	1093.942017	7436.878418	2517.365479	22.441080
287.607025	1097.254272	7468.667480	2524.119141	22.394794
287.982056	1100.114868	7471.699707	2524.312744	22.352333
288.357086	1103.577637	7457.009766	2513.214600	22.187016
288.732086	1104.201294	7427.049805	2503.966064	22.138199
289.107025	1104.373413	7399.476563	2493.965088	22.074169
289.481934	1106.137085	7369.988770	2487.512695	22.053135
289.856842	1104.395020	7367.579590	2485.017334	22.043455
290.231659	1103.276611	7383.409668	2487.060791	22.034313
290.606506	1102.717407	7399.583984	2489.598633	22.024942
290.981262	1104.029419	7420.532715	2494.674561	22.016060
291.355988	1103.341064	7460.408203	2500.998047	21.985876
291.730713	1101.276245	7499.531250	2509.838135	22.014782
292.105377	1100.996582	7523.040527	2516.161133	22.036045
292.480011	1102.115112	7531.126953	2524.312744	22.121559
292.854614	1101.340698	7544.418945	2530.270508	22.177752
293.229187	1102.093628	7573.949707	2544.078857	22.280861
293.603729	1104.115356	7617.632324	2563.135010	22.399874
293.978241	1103.771240	7652.840332	2583.266357	22.590921
294.352692	1101.964478	7681.683105	2602.559082	22.806364
294.727081	1101.061035	7708.525391	2623.292725	23.038061
295.101501	1098.609253	7761.865234	2646.650635	23.232508
295.475830	1095.512085	7848.133301	2678.891113	23.448362
295.850189	1095.038940	7991.893555	2726.789307	23.659342
296.224457	1091.683716	8203.381836	2789.937012	23.879715
296.598694	1089.403809	8463.350586	2867.495117	24.113155
296.972931	1089.016602	8729.597656	2947.548340	24.324482
297.347107	1088.586426	8935.946289	3013.792969	24.533175
297.721283	1087.898071	9061.037109	3055.196045	24.674070
298.095367	1089.769409	9098.051758	3077.413818	24.819860
298.469452	1092.737427	9080.931641	3086.339600	24.956856
298.843475	1092.199707	9037.636719	3083.973389	25.068146
299.217529	1094.587158	8972.337891	3081.091309	25.216640
299.591492	1096.436890	8892.672852	3068.745850	25.298222
299.965424	1098.135864	8774.442383	3047.560791	25.395350
300.339325	1102.179565	8594.958008	3010.200928	25.464806
300.713196	1103.513062	8374.263672	2959.743164	25.530104
301.087036	1105.448730	8138.126465	2907.306641	25.621222
301.460815	1104.975586	7937.585938	2858.806152	25.668530
301.834564	1103.771118	7774.533203	2820.435791	25.734161
302.208282	1103.125854	7649.119141	2787.592773	25.732794
302.582001	1103.297974	7531.814453	2759.632080	25.765417
302.955658	1103.297974	7423.306641	2733.091064	25.787830
303.329254	1100.889038	7332.241699	2712.292725	25.859613
303.702820	1101.276245	7248.747070	2693.925293	25.907387
304.076416	1100.910645	7176.007813	2676.202637	25.930317
304.449921	1099.491089	7122.452637	2664.201172	25.979082
304.823395	1099.749146	7062.165527	2648.758301	25.979553
305.196838	1099.426636	7003.878418	2631.702393	25.951195
305.570251	1097.921021	6932.858887	2615.119873	26.001970
305.943604	1096.479980	6870.485840	2598.450928	26.012632
306.316986	1096.350952	6825.146973	2588.019531	26.038082
306.690277	1094.759399	6800.218750	2574.792480	25.940647
307.063507	1094.200073	6800.971680	2575.781494	25.961815
307.436768	1095.038940	6830.372070	2579.158447	25.876780
307.809937	1092.328979	6880.078125	2590.944824	25.892897
308.183136	1093.081665	6951.484375	2610.043945	25.893785
308.556244	1091.640747	7039.259277	2628.863525	25.846022
308.929321	1092.802002	7145.702637	2652.177979	25.762459
309.302399	1091.963379	7244.488770	2676.116699	25.748018
309.675446	1093.597778	7353.104492	2703.775879	25.723721
310.048401	1095.167969	7449.568359	2726.101318	25.666204
310.421356	1093.662354	7553.624512	2748.641602	25.619024
310.794281	1094.049438	7670.606445	2780.624023	25.645250
311.167145	1096.264771	7784.168945	2808.820801	25.606766
311.539978	1100.437378	7864.242676	2826.737305	25.522615
311.912781	1102.588135	7910.098145	2836.695557	25.473448
312.285553	1101.147095	7899.667480	2830.264648	25.433733
312.658295	1102.308472	7851.940430	2819.252441	25.437593
313.031006	1101.254639	7786.728027	2806.519775	25.507021
313.403656	1101.792358	7728.354980	2789.076660	25.462437
313.776276	1101.663208	7684.435547	2773.289795	25.393959
314.148865	1102.029053	7688.415527	2772.881104	25.368265
314.521454	1105.040161	7694.351563	2777.656006	25.383772
314.893982	1103.147583	7677.596680	2769.999023	25.353477
315.266449	1101.018311	7620.212891	2751.997070	25.324890
315.638885	1095.899292	7539.772949	2730.381348	25.364901
316.011322	1094.544189	7452.429199	2705.711914	25.341253
316.383667	1094.759277	7385.065430	2688.053711	25.329363
316.756042	1094.458130	7327.316895	2671.686035	25.305048
317.128326	1094.049561	7277.848145	2653.963379	25.225819
317.500610	1094.329102	7220.959473	2641.316650	25.250219
317.872833	1094.157104	7145.443848	2623.873535	25.279194
318.245087	1094.608643	7047.453613	2596.515381	25.230068
318.617218	1093.468872	6948.925293	2570.361572	25.222504
318.989319	1094.780762	6877.604980	2552.789307	25.212742
319.361420	1097.684448	6835.212402	2539.647949	25.132139
319.733490	1100.889160	6807.423828	2533.088135	25.097525
320.105530	1099.792114	6786.690430	2526.183838	25.082067
320.477509	1100.566528	6764.343750	2518.312012	25.031801
320.849457	1101.512817	6742.125488	2511.407959	24.995424
321.221375	1099.899780	6731.974609	2504.525146	24.939751
321.593231	1100.200806	6729.565430	2499.578369	24.858534
321.965088	1100.802979	6731.823242	2495.040039	24.759935
322.336884	1102.459106	6746.857422	2497.513428	24.715731
322.708618	1100.265381	6786.432617	2504.439209	24.694559
323.080414	1101.254761	6844.159668	2516.053711	24.635599
323.452118	1102.179565	6947.871582	2542.788330	24.643940
323.823761	1099.899658	7085.007324	2574.641602	24.640192
324.195343	1102.846313	7229.239258	2612.732422	24.645596
324.566925	1101.061035	7372.160645	2642.047852	24.572832
324.938507	1099.189941	7509.081055	2671.556885	24.530323
325.310059	1099.964355	7620.814453	2702.205811	24.571053
325.681519	1099.663208	7736.399902	2725.434082	24.496540
326.052948	1098.802856	7852.091797	2750.641602	24.459766
326.424408	1094.458130	7916.723145	2768.665283	24.540340
326.795776	1097.275757	7936.703613	2770.536621	24.464926
327.167084	1095.705688	7906.787109	2760.470947	24.442011
327.538391	1093.490356	7825.529785	2737.995117	24.428032
327.909668	1095.296997	7721.903320	2710.959717	24.381451
328.280884	1095.813232	7621.073730	2679.234863	24.266029
328.652100	1096.802734	7529.922363	2661.060791	24.315701
329.023254	1097.856445	7453.332520	2644.736328	24.339323
329.394348	1098.200562	7390.443359	2625.680176	24.275599
329.765442	1097.834839	7310.196777	2609.463135	24.332586
330.136475	1098.351074	7226.937988	2586.535400	24.282667
330.507538	1099.878174	7159.510742	2569.006592	24.244513
330.878479	1097.619873	7106.687500	2557.693359	24.297838
331.249420	1098.673706	7078.705078	2553.004395	24.319784
331.620331	1097.168091	7080.082520	2555.951172	24.382483
331.991211	1096.092896	7099.223633	2556.467285	24.326880
332.362030	1094.716309	7135.120605	2566.468506	24.365128
332.732819	1093.877441	7177.190430	2577.760010	24.392672
333.103577	1092.888184	7218.851074	2585.675049	24.368200
333.474304	1093.103271	7245.328125	2591.267334	24.351583
333.845001	1093.103271	7266.728516	2596.579834	24.353222
334.215668	1095.318481	7282.107422	2605.010986	24.401875
334.586273	1096.221802	7310.819824	2609.936523	24.357403
334.956818	1097.490845	7336.048340	2614.840088	24.322117
335.327362	1096.437012	7358.523926	2621.658447	24.356440
335.697876	1099.534058	7373.127930	2624.303711	24.304565
336.068329	1099.964355	7380.677734	2630.519531	24.369129
336.438751	1099.964233	7374.892578	2630.648682	24.393656
336.809174	1103.233521	7369.923828	2628.089111	24.332710
337.179504	1103.018433	7381.000000	2632.175537	24.357464
337.549896	1103.469971	7413.283203	2643.682373	24.409794
337.920135	1105.814331	7465.849609	2655.855957	24.371590
338.290375	1104.115234	7520.394043	2670.223389	24.408356
338.660614	1103.835815	7566.679688	2682.870117	24.432501
339.030792	1104.975708	7605.523438	2694.054443	24.445305
339.400940	1107.556641	7646.431152	2702.636230	24.393795
339.771027	1106.309204	7679.596680	2711.648193	24.422163
340.141083	1106.825317	7714.590820	2723.197510	24.461706
340.511139	1107.965210	7751.798828	2733.951660	24.473618
340.881134	1105.642456	7796.600098	2744.081787	24.487368
341.251068	1105.599243	7825.829590	2750.405273	24.475441
341.621002	1104.373291	7840.841797	2757.051270	24.533298
341.990875	1101.233154	7849.101563	2761.094727	24.598310
342.360718	1099.964233	7858.995117	2763.181152	24.607328
342.730560	1100.136230	7879.062012	2768.988281	24.618238
343.100311	1097.834961	7921.325195	2783.420410	24.702686
343.470032	1097.383301	7984.279297	2802.734619	24.762262
343.839752	1097.125122	8068.074707	2826.221191	24.804312
344.209442	1098.028564	8161.526855	2852.095459	24.832836
344.579041	1096.523071	8264.938477	2880.679443	24.889132
344.948639	1095.813232	8365.853516	2910.790771	24.965166
345.318176	1098.845825	8455.262695	2937.633057	24.995691
345.687714	1098.286621	8552.909180	2959.011963	24.960691
346.057190	1098.200562	8625.068359	2980.584473	25.008862
346.426636	1100.136230	8678.581055	2997.145508	25.031643
346.796051	1099.297363	8703.013672	3003.060303	25.037270
347.165405	1099.985596	8698.797852	3002.974365	25.043240
347.534729	1099.598633	8657.610352	2992.349121	25.042969
347.904083	1099.770752	8593.752930	2974.970947	25.022747
348.273315	1099.211426	8511.786133	2954.151123	25.024229
348.642517	1099.491089	8436.227539	2933.955078	25.003815
349.011719	1099.749146	8361.422852	2913.199951	24.972904
349.380890	1096.781006	8308.834961	2901.736084	25.026922
349.749969	1097.942505	8260.614258	2892.638184	25.056232
350.119049	1101.147217	8238.375977	2883.669434	24.974991
350.488098	1102.308716	8235.384766	2884.206787	24.980780
350.857117	1103.534668	8238.632813	2891.455078	25.058105
351.226074	1102.179565	8268.012695	2898.208496	25.063784
351.595001	1102.910889	8313.008789	2911.220947	25.080244
351.963867	1102.910889	8365.336914	2924.663330	25.084627
352.332764	1099.813721	8432.206055	2937.890869	25.067904
352.701538	1099.146973	8501.246094	2961.097900	25.154364
353.070343	1100.738525	8591.322266	2984.477295	25.148090
353.439056	1100.867676	8685.075195	3010.588135	25.180223
353.807770	1101.233276	8792.744141	3035.365723	25.146328
354.176453	1100.243896	8898.822266	3066.616455	25.214500
354.545105	1096.781128	9022.581055	3096.620361	25.232018
354.913666	1096.931641	9173.868164	3135.958496	25.245052
355.282227	1098.652344	9334.511719	3176.242920	25.226154
355.650757	1095.770264	9501.285156	3217.409424	25.241037
356.019226	1095.899292	9686.339844	3263.974121	25.238226
356.387695	1097.275757	9897.461914	3324.734375	25.311491
356.756104	1097.727417	10147.257813	3391.366211	25.345388
357.124451	1096.458496	10424.130859	3467.870361	25.423407
357.492828	1095.856201	10681.905273	3535.083008	25.445591
357.861084	1096.716553	10896.963867	3595.456299	25.496702
358.229401	1096.436890	11065.134766	3642.688232	25.542467
358.597595	1100.028687	11179.878906	3675.917969	25.554834
358.965759	1098.308105	11285.785156	3703.146973	25.569029
359.333923	1097.576904	11397.927734	3735.387451	25.608940
359.702057	1099.770630	11556.829102	3780.296143	25.633646
360.070129	1098.329590	11736.874023	3840.669434	25.777395
360.438141	1100.695435	11947.889648	3898.031250	25.788567
360.806122	1102.717163	12195.875977	3960.426025	25.761002
361.174133	1104.502441	12475.975586	4039.446777	25.809711
361.542053	1106.201660	12787.734375	4118.812012	25.789511
361.909912	1104.782104	13059.295898	4191.831543	25.823296
362.277771	1104.072266	13289.452148	4248.763184	25.807081
362.645599	1102.523560	13435.535156	4286.187500	25.814165
363.013367	1101.684937	13487.328125	4305.522949	25.867352
363.381134	1101.878540	13454.527344	4302.339355	25.909107
363.748810	1100.824707	13341.522461	4275.540527	25.935743
364.116455	1101.792480	13151.778320	4223.577637	25.906960
364.484100	1100.136353	12877.100586	4151.353027	25.908348
364.851715	1097.426270	12500.042969	4053.232910	25.922176
365.219238	1095.641113	12017.209961	3923.927246	25.896338
365.586761	1094.071167	11496.714844	3794.061035	25.954842
365.954224	1092.587036	11045.755859	3680.069336	25.996569
366.321686	1092.113770	10687.518555	3589.154053	26.023294
366.689117	1093.275269	10452.758789	3531.942871	26.055578
367.056458	1096.824097	10290.286133	3488.604004	26.016094
367.423737	1097.533936	10172.636719	3454.987305	25.977154
367.791077	1098.630859	10063.891602	3425.951416	25.959318
368.158295	1099.362061	9978.162109	3399.560791	25.906641
368.525543	1099.899658	9899.936523	3380.418945	25.914883
368.892700	1102.222534	9826.788086	3360.330566	25.882181
369.259827	1103.233521	9775.147461	3345.747803	25.859507
369.626953	1104.567017	9742.949219	3336.671631	25.839382
369.994019	1105.083130	9712.256836	3325.788330	25.800631
370.361053	1105.814453	9696.125977	3321.379150	25.791435
370.728027	1104.201294	9690.146484	3321.465088	25.824339
371.094971	1102.545166	9704.665039	3322.863525	25.811293
371.461914	1099.792114	9732.152344	3328.735107	25.820782
371.828796	1099.964355	9764.951172	3339.940674	25.850893
372.195618	1099.383545	9808.225586	3350.673340	25.850622
372.562408	1099.598633	9839.046875	3360.136719	25.865913
372.929199	1098.867310	9875.116211	3375.643799	25.942476
373.295898	1096.544434	9908.454102	3390.269531	26.029829
373.662598	1097.576782	9953.125977	3401.991455	26.022266
374.029236	1098.093018	9996.227539	3415.993164	26.049282
374.395844	1098.802856	10033.027344	3429.263916	26.084646
374.762421	1100.566528	10077.097656	3441.157715	26.074564
375.128967	1099.555542	10134.545898	3458.170410	26.105337
375.495483	1103.448608	10215.415039	3484.862305	26.135012
375.861908	1101.125854	10344.572266	3520.479492	26.173717
376.228333	1100.609497	10513.862305	3569.043945	26.222971
376.594727	1098.265137	10751.439453	3630.514648	26.232300
376.961090	1097.770386	11016.181641	3700.178955	26.238161
377.327393	1101.211792	11269.352539	3768.165771	26.228533
377.693665	1099.620117	11461.527344	3824.645996	26.298496
378.059906	1100.243896	11601.781250	3865.016357	26.327312
378.426086	1101.190186	11685.490234	3888.804443	26.337257
378.792267	1100.781494	11717.967773	3900.914063	26.373583
379.158386	1100.200806	11706.439453	3900.354492	26.401009
379.524445	1098.006958	11674.457031	3892.482178	26.421673
379.890503	1099.964233	11605.610352	3881.147705	26.473227
380.256531	1100.996582	11494.047852	3855.122803	26.499689
380.622467	1102.953857	11331.468750	3819.462402	26.558191
380.988403	1103.255005	11130.669922	3769.047852	26.585047
381.354279	1101.104126	10936.257813	3724.332275	26.671959
381.720154	1099.426636	10784.260742	3688.005615	26.728172
382.085968	1100.738525	10692.442383	3667.637451	26.761656
382.451752	1099.491089	10663.148438	3667.465088	26.851381
382.817474	1100.028809	10677.924805	3679.423340	26.930700
383.183197	1101.512939	10747.503906	3703.813477	26.978052
383.548859	1101.211792	10817.749023	3731.300781	27.068171
383.914490	1099.491211	10895.329102	3756.702148	27.125917
384.280060	1099.276123	10966.520508	3788.576660	27.254829
384.645599	1098.802856	11036.163086	3814.816650	27.331339
385.011108	1096.781128	11120.754883	3849.272705	27.459087
385.376617	1095.426147	11219.089844	3878.265381	27.488461
385.742035	1095.684082	11332.500977	3914.700195	27.538015
386.107452	1093.361328	11437.826172	3952.210205	27.636509
386.472778	1093.210815	11530.417969	3983.310791	27.690359
386.838135	1090.823364	11626.559570	4020.390381	27.806000
387.203430	1090.328735	11692.825195	4053.254639	27.945549
387.568634	1089.446777	11741.561523	4077.752930	28.053640
387.933838	1091.296509	11771.308594	4095.776367	28.131804
388.299042	1091.855713	11806.624023	4112.638672	28.192703
388.664124	1089.403809	11833.939453	4128.512207	28.285154
389.029236	1092.931152	11843.661133	4149.159180	28.428097
389.394318	1094.114136	11856.931641	4170.085938	28.579615
389.759308	1094.157104	11859.254883	4190.196777	28.759977
390.124298	1094.415161	11897.474609	4223.383301	28.963722
390.489227	1096.178833	11985.441406	4264.636230	29.097080
390.854126	1096.350830	12100.639648	4311.695313	29.219011
391.218964	1097.748901	12246.528320	4366.863281	29.322620
391.583771	1097.641479	12404.568359	4429.989746	29.471741
391.948578	1094.372192	12542.930664	4488.491699	29.646698
392.313354	1092.436401	12655.502930	4536.433105	29.784458
392.678040	1094.522705	12759.365234	4586.095215	29.932444
393.042694	1091.554565	12871.121094	4633.778320	30.070917
393.407349	1093.705322	12997.244141	4684.795410	30.168255
393.771942	1094.630371	13137.218750	4738.414551	30.257484
394.136505	1093.985107	13233.640625	4780.936523	30.371138
394.501007	1091.145996	13250.416016	4808.423340	30.571552
394.865479	1092.113770	13191.269531	4809.241699	30.722208
395.229919	1090.715820	13059.208984	4788.485352	30.895864
395.594360	1094.264771	12900.953125	4758.869141	31.038378
395.958710	1098.007080	12755.558594	4725.617676	31.118116
396.323029	1098.953491	12622.725586	4699.527832	31.244753
396.687286	1099.254517	12495.181641	4675.804688	31.384462
397.051544	1100.932129	12373.447266	4649.178223	31.476967
397.415771	1098.888794	12218.524414	4618.809082	31.654997
397.779938	1099.426636	12045.384766	4584.267090	31.836779
398.144043	1100.803101	11876.718750	4548.972168	31.998848
398.508148	1099.383545	11731.345703	4514.172363	32.118145
398.872192	1099.039429	11617.761719	4495.374512	32.288475
399.236237	1099.297485	11542.204102	4487.093262	32.441120
399.600189	1097.060669	11490.456055	4483.522949	32.582829
399.964111	1095.920776	11451.311523	4486.018066	32.737511
400.328003	1094.866943	11420.555664	4497.181152	32.949997
400.691925	1093.081787	11410.338867	4510.150391	33.119934
401.055695	1093.554932	11395.217773	4522.237793	33.282810
401.419495	1093.404297	11390.186523	4537.314941	33.446476
401.783234	1092.522583	11416.532227	4556.478516	33.552429
402.146942	1093.490356	11432.211914	4574.136719	33.666119
402.510620	1096.071167	11475.981445	4605.452637	33.809361
402.874237	1096.910034	11545.322266	4634.875488	33.861275
403.237823	1097.942505	11646.604492	4681.720215	33.973766
403.601379	1097.899536	11783.717773	4742.953613	34.111137
403.964874	1097.598389	11953.416016	4820.296387	34.292194
404.328369	1098.845825	12137.160156	4894.671387	34.387730
404.691772	1101.899902	12298.964844	4966.723145	34.516396
405.055176	1100.394409	12461.372070	5032.752930	34.612854
405.418549	1100.760010	12608.122070	5090.287109	34.669346
405.781860	1100.953613	12710.436523	5138.615234	34.778999
406.145142	1100.372925	12804.383789	5178.146484	34.840820
406.508362	1096.910034	12858.259766	5212.538574	34.992825
406.871552	1096.071289	12872.971680	5232.519531	35.123402
407.234741	1095.533569	12855.744141	5239.014648	35.233051
407.597870	1096.286377	12795.436523	5231.766602	35.348553
407.960938	1099.082397	12714.909180	5215.699707	35.439724
408.323975	1098.759766	12628.490234	5196.148926	35.537598
408.686981	1099.318970	12567.297852	5183.760254	35.616055
409.049957	1099.405029	12529.293945	5185.502441	35.749233
409.412903	1100.050293	12531.552734	5200.407715	35.868931
409.775787	1099.942749	12562.309570	5225.076660	35.988499
410.138611	1100.652466	12608.766602	5257.038574	36.117004
410.501434	1103.900269	12662.795898	5291.063965	36.224598
410.864227	1104.609985	12703.165039	5317.131836	36.319370
411.226929	1104.502441	12739.277344	5344.984863	36.446621
411.589630	1104.696045	12787.863281	5369.267578	36.501842
411.952271	1103.835815	12802.446289	5388.538574	36.625740
412.314911	1103.083008	12808.704102	5406.282715	36.761822
412.677490	1101.577393	12819.889648	5417.531250	36.830849
413.040009	1104.545532	12832.342773	5425.833496	36.846546
413.402496	1102.523682	12817.157227	5426.779785	36.913284
413.764984	1102.652832	12790.637695	5420.542969	36.942982
414.127380	1100.953613	12777.344727	5418.585449	36.977451
414.489777	1100.329956	12783.412109	5419.983887	36.973579
414.852112	1101.104248	12831.394531	5442.825195	37.012901
415.214386	1100.932129	12908.696289	5470.355469	37.004665
415.576660	1100.222290	13008.063477	5512.274414	37.051655
415.938904	1098.695190	13161.844727	5559.505859	36.978821
416.301086	1101.211792	13343.672852	5619.233887	36.904526
416.663208	1101.512817	13534.774414	5687.780273	36.887085
417.025299	1097.964111	13747.102539	5765.961426	36.903675
417.387390	1097.641479	13993.647461	5850.811523	36.857689
417.749420	1097.383301	14281.855469	5960.695801	36.886665
418.111389	1097.576904	14608.261719	6076.323242	36.850437
418.473328	1096.738037	14982.374023	6209.651367	36.821598
418.835266	1094.673340	15378.788086	6351.690430	36.803238
419.197144	1096.781128	15816.389648	6519.087402	36.837299
419.558960	1096.092896	16293.288086	6699.476074	36.871166
419.920746	1095.684204	16814.921875	6903.715820	36.948559
420.282471	1095.899292	17418.888672	7139.465820	37.024876
420.644226	1094.608887	18049.289063	7384.743652	37.099697
421.005920	1092.393433	18652.761719	7623.332520	37.191353
421.367523	1092.909668	19205.388672	7851.489258	37.314495
421.729126	1092.436401	19689.105469	8044.416992	37.382931
422.090668	1091.640503	20103.029297	8220.071289	37.495583
422.452179	1092.414917	20437.283203	8368.047852	37.610142
422.813660	1092.156860	20766.935547	8517.249023	37.739140
423.175110	1089.382324	21078.695313	8649.673828	37.821667
423.536469	1089.016724	21354.472656	8772.355469	37.913479
423.897858	1088.328369	21574.929688	8877.465820	38.020645
424.259155	1086.242065	21651.544922	8934.913086	38.164627
424.620453	1086.134644	21666.791016	8965.625977	38.285908
424.981689	1091.188965	21630.486328	8976.832031	38.392956
425.342865	1092.092285	21562.048828	8970.594727	38.488125
425.704041	1091.769653	21472.617188	8957.129883	38.591919
426.065186	1093.769775	21369.960938	8936.527344	38.679642
426.426239	1094.565674	21230.953125	8898.564453	38.755707
426.787262	1096.522949	20996.988281	8830.513672	38.863369
427.148254	1096.888672	20678.130859	8728.436523	38.973766
427.509216	1098.028442	20293.246094	8591.924805	39.040436
427.870178	1098.222046	19842.652344	8426.312500	39.094765
428.231049	1097.942383	19410.876953	8255.172852	39.082928
428.591858	1100.179321	18984.113281	8092.573242	39.098747
428.952698	1098.910278	18575.439453	7932.660645	39.102448
429.313446	1099.189941	18204.597656	7789.374512	39.111515
429.674164	1101.985962	17855.242188	7659.615723	39.142422
430.034851	1101.147217	17533.355469	7540.332520	39.186367
430.395477	1100.244019	17253.707031	7430.641113	39.189102
430.756104	1099.297607	17029.400391	7338.909180	39.168682
431.116699	1097.297241	16851.013672	7264.039551	39.144680
431.477203	1095.727295	16712.544922	7213.216797	39.172447
431.837646	1097.318848	16644.773438	7186.912109	39.167782
432.198090	1098.243652	16616.832031	7179.728516	39.188393
432.558502	1095.619629	16627.585938	7190.697266	39.242149
432.918884	1095.641113	16653.998047	7217.151855	39.345482
433.279205	1094.049561	16710.177734	7250.962402	39.426632
433.639465	1093.533325	16786.314453	7291.935547	39.498432
433.999756	1095.060425	16865.056641	7336.198730	39.576027
434.359924	1097.211182	16953.216797	7390.098145	39.687717
434.720093	1097.899536	17034.044922	7436.061035	39.772236
435.080200	1099.641602	17095.513672	7481.099609	39.894405
435.440277	1101.211670	17160.146484	7524.588867	39.998775
435.800354	1099.275879	17185.830078	7564.916016	40.192822
436.160370	1097.340210	17192.820313	7599.392578	40.396759
436.520325	1099.189819	17192.820313	7629.353516	40.576073
436.880249	1098.265137	17205.078125	7648.560547	40.667858
437.240112	1098.050171	17215.617188	7675.101563	40.806725
437.599976	1098.265137	17262.482422	7711.664551	40.913826
437.959808	1097.662964	17333.457031	7763.090820	41.053905
438.319519	1096.350952	17413.857422	7822.517578	41.220554
438.679260	1091.145996	17536.646484	7896.720215	41.382591
439.038940	1092.586914	17707.978516	7994.452637	41.538990
439.398590	1092.414795	17931.275391	8110.983887	41.680782
439.758179	1092.866577	18226.859375	8252.463867	41.785927
440.117767	1095.124878	18574.494141	8417.774414	41.893101
440.477295	1095.490601	18934.453125	8587.666016	41.998940
440.836792	1095.920776	19279.357422	8762.741211	42.163757
441.196198	1098.867310	19575.050781	8916.524414	42.312077
441.555603	1098.544800	19804.392578	9044.819336	42.480164
441.914978	1098.265137	19959.164063	9139.519531	42.634525
442.274323	1098.738403	20082.167969	9211.615234	42.736626
442.633575	1103.728149	20140.388672	9263.665039	42.864330
442.992859	1103.685181	20138.429688	9285.000000	42.980957
443.352051	1103.384033	20087.412109	9273.364258	43.036076
443.711182	1105.491943	19969.117188	9244.307617	43.145554
444.070313	1103.921753	19825.337891	9200.300781	43.246616
444.429382	1103.771240	19678.630859	9148.594727	43.310280
444.788452	1103.448608	19573.458984	9123.797852	43.423634
445.147430	1101.641968	19542.746094	9128.034180	43.524467
445.506409	1097.963989	19594.320313	9162.898438	43.602829
445.865295	1094.264771	19736.939453	9234.756836	43.665905
446.224182	1092.888184	19956.279297	9338.985352	43.714821
446.583038	1093.899048	20226.097656	9474.658203	43.804470
446.941833	1092.630005	20505.294922	9614.117188	43.896538
447.300598	1093.597778	20762.875000	9755.983398	44.040184
447.659302	1091.877197	20991.054688	9869.889648	44.112438
448.018005	1093.791504	21158.558594	9958.502930	44.180481
448.376648	1093.597900	21260.806641	10026.683594	44.295101
448.735229	1096.652100	21288.230469	10043.826172	44.311413
449.093781	1098.157715	21246.203125	10033.351563	44.347694
449.452301	1100.308350	21122.595703	9989.841797	44.398190
449.810791	1103.577759	20923.970703	9914.971680	44.456200
450.169220	1103.900269	20623.998047	9798.656250	44.542583
450.527618	1102.373169	20295.289063	9658.316406	44.578651
450.885956	1103.706665	20003.423828	9535.397461	44.612785
451.244263	1103.771118	19716.507813	9420.522461	44.683117
451.602539	1104.781982	19494.673828	9325.284180	44.701195
451.960785	1104.480835	19310.414063	9255.683594	44.772232
452.318970	1108.094238	19172.310547	9196.774414	44.777363
452.677124	1104.609863	19023.412109	9143.391602	44.862270
453.035248	1104.222778	18869.242188	9082.759766	44.911503
453.393311	1105.599243	18696.167969	9018.837891	44.985691
453.751312	1104.695923	18529.070313	8950.937500	45.030262
454.109314	1107.212402	18388.814453	8891.704102	45.044968
454.467285	1109.169800	18245.613281	8837.094727	45.096432
454.825195	1108.739502	18072.367188	8767.967773	45.150890
455.183044	1109.943848	17904.023438	8692.195313	45.148357
455.540894	1106.545654	17691.955078	8607.905273	45.228664
455.898651	1106.674683	17504.232422	8517.549805	45.194992
456.256378	1101.856934	17306.982422	8438.400391	45.272984
456.614105	1103.061401	17179.052734	8378.134766	45.254276
456.971771	1104.050781	17093.775391	8345.141602	45.285900
457.329407	1101.749512	17093.128906	8344.861328	45.293854
457.686981	1101.684814	17167.417969	8381.577148	45.313168
458.044525	1099.598633	17346.685547	8468.188477	45.353298
458.402008	1099.189941	17633.281250	8603.797852	45.388691
458.759460	1098.458618	18066.625000	8803.262695	45.407406
459.116913	1096.329468	18630.761719	9070.328125	45.476231
459.474274	1098.286621	19308.283203	9379.571289	45.476589
459.831635	1098.630859	19928.597656	9664.444336	45.490326
460.188904	1098.738403	20480.904297	9923.465820	45.530140
460.546173	1098.587769	20918.871094	10135.340820	45.593460
460.903381	1097.684448	21253.000000	10291.295898	45.613827
461.260559	1098.093262	21482.876953	10397.417969	45.618950
461.617706	1101.082764	21610.376953	10461.467773	45.639721
461.974762	1100.803101	21586.716797	10458.994141	45.681103
462.331848	1099.017822	21431.537109	10387.845703	45.684589
462.688843	1099.856812	21097.753906	10238.946289	45.700256
463.045837	1099.856812	20608.511719	10016.014648	45.703606
463.402740	1100.028931	20001.488281	9744.668945	45.735302
463.759613	1098.759888	19425.611328	9500.961914	45.846401
464.116486	1099.017944	18915.269531	9268.717773	45.855324
464.473267	1100.222290	18506.187500	9085.555664	45.876995
464.830048	1099.899658	18187.908203	8941.473633	45.889339
465.186737	1101.491333	17932.179688	8835.482422	45.951725
465.543457	1098.910522	17749.082031	8751.493164	45.960983
465.900085	1096.135864	17683.847656	8726.758789	46.001663
466.256683	1093.877563	17708.130859	8746.052734	46.057892
466.613251	1093.081665	17779.880859	8781.260742	46.073421
466.969757	1092.156738	17868.923828	8831.351563	46.130428
467.326233	1092.974121	17954.439453	8880.067383	46.182781
467.682678	1093.468750	18007.349609	8909.512695	46.210827
468.039093	1094.329102	18032.878906	8927.836914	46.246624
468.395416	1091.554688	18023.759766	8925.321289	46.265484
468.751740	1089.511353	18002.896484	8932.935547	46.374065
469.108032	1089.511353	17967.236328	8923.277344	46.414825
469.464233	1089.877075	17925.876953	8915.018555	46.478626
469.820435	1095.770264	17833.671875	8882.583008	46.522034
470.176575	1097.533936	17685.136719	8814.467773	46.522293
470.532715	1099.340576	17518.494141	8746.394531	46.573982
470.888763	1103.470093	17376.755859	8682.022461	46.570511
471.244751	1103.190430	17260.076172	8630.250977	46.587322
471.600769	1103.534668	17199.617188	8605.797852	46.609249
471.956696	1104.029297	17199.033203	8605.044922	46.604622
472.312592	1104.717651	17266.589844	8652.018555	46.698185
472.668457	1105.964966	17356.882813	8706.218750	46.768150
473.024292	1107.126465	17486.939453	8778.678711	46.835411
473.380035	1106.954468	17572.779297	8828.018555	46.891453
473.735779	1106.007935	17660.789063	8873.680664	46.921024
474.091492	1104.953979	17747.638672	8933.902344	47.041374
474.447113	1102.179565	17866.193359	9003.631836	47.133415
474.802765	1098.394165	17964.505859	9074.586914	47.291237
475.158295	1098.587769	18087.423828	9160.339844	47.453232
475.513824	1099.491089	18213.548828	9237.897461	47.553925
475.869324	1098.114624	18362.341797	9327.757813	47.668766
476.224762	1098.781372	18489.732422	9405.832031	47.766514
476.580170	1100.007202	18638.607422	9487.670898	47.824024
476.935516	1099.082397	18791.574219	9582.542969	47.949497
477.290863	1099.469604	19031.796875	9719.656250	48.070648
477.646118	1096.867065	19283.615234	9873.524414	48.258530
478.001373	1097.533936	19573.435547	10036.383789	48.381126
478.356537	1098.609253	19855.857422	10202.812500	48.536987
478.711700	1100.501953	20156.970703	10368.983398	48.636929
479.066833	1099.254395	20462.707031	10539.865234	48.754791
479.421875	1097.555298	20789.414063	10731.242188	48.922176
479.776917	1098.544678	21111.562500	10928.235352	49.116482
480.131897	1098.222046	21482.617188	11154.628906	49.333855
480.486847	1097.146606	21913.056641	11406.273438	49.525227
480.841766	1098.781372	22435.853516	11697.233398	49.671539
481.196594	1098.953491	23050.208984	12050.137695	49.888649
481.551453	1098.093262	23857.900391	12490.965820	50.056984
481.906219	1095.211060	24897.945313	13055.122070	50.245956
482.260986	1094.479736	26347.199219	13848.961914	50.507362
482.615662	1092.135254	28416.939453	14993.253906	50.873627
482.970306	1093.640991	31148.205078	16574.183594	51.508125
483.324951	1093.619385	34243.640625	18511.240234	52.541813
483.679504	1092.673096	37399.925781	20574.054688	53.656994
484.034027	1092.113892	40339.859375	22433.705078	54.376606
484.388519	1091.597656	42912.027344	23994.693359	54.765327
484.742981	1089.898560	45000.953125	25233.773438	54.983593
485.097351	1088.586426	46633.558594	26190.279297	55.114082
485.451721	1092.759033	47805.765625	26912.970703	55.274136
485.806030	1096.501465	48616.898438	27458.005859	55.474079
486.160309	1096.114258	49095.046875	27834.332031	55.705860
486.514557	1098.135986	49099.496094	27961.767578	55.964314
486.868744	1098.265137	48648.539063	27797.851563	56.150227
487.222931	1097.856567	47882.898438	27323.042969	56.054638
487.577026	1099.168579	46976.785156	26693.611328	55.788521
487.931122	1100.071777	46097.984375	26153.673828	55.677250
488.285126	1101.964478	45262.703125	25738.867188	55.789154
488.639099	1103.642090	44510.371094	25426.763672	56.035366
488.993042	1103.706543	43848.421875	25190.388672	56.350082
489.346954	1101.727905	43273.769531	25008.150391	56.687843
489.700836	1102.609741	42718.285156	24833.462891	57.023834
490.054626	1103.233521	42111.195313	24613.351563	57.330616
490.408417	1100.889160	41562.910156	24432.187500	57.662220
490.762146	1102.093628	41075.882813	24284.318359	57.993565
491.115814	1103.491577	40714.914063	24231.001953	58.385963
491.469513	1103.599121	40368.914063	24186.500000	58.786999
491.823090	1102.007324	39915.222656	24065.925781	59.165203
492.176666	1101.813965	39426.257813	23922.017578	59.544769
492.530182	1100.609375	38929.359375	23772.472656	59.932892
492.883698	1099.813721	38390.558594	23592.923828	60.318207
493.237091	1099.017944	37800.746094	23359.669922	60.652874
493.590515	1099.232910	37121.738281	23057.287109	60.956493
493.943878	1098.243652	36263.609375	22658.269531	61.310394
494.297150	1101.233276	35105.378906	22075.337891	61.681026
494.650452	1100.630981	33647.519531	21296.316406	62.051048
495.003662	1100.093262	31910.638672	20324.326172	62.394978
495.356873	1099.792114	30217.744141	19371.970703	62.752277
495.710022	1100.028687	28792.429688	18596.173828	63.180309
496.063110	1098.329590	27677.992188	18017.929688	63.656189
496.416168	1098.867188	26896.216797	17630.312500	64.081955
496.769165	1100.544922	26366.167969	17407.210938	64.540924
497.122162	1100.286865	26053.806641	17305.908203	64.943230
497.475098	1100.566528	25846.599609	17280.119141	65.382408
497.828003	1100.803223	25765.664063	17321.974609	65.766319
498.180847	1099.190063	25726.951172	17382.046875	66.115860
498.533661	1096.479980	25654.445313	17418.394531	66.462814
498.886444	1097.598267	25577.039063	17457.195313	66.829941
499.239136	1096.221802	25444.720703	17451.302734	67.170799
499.591827	1097.727417	25234.654297	17382.154297	67.466858
499.944427	1098.222168	24928.873047	17245.750000	67.759491
500.297089	1096.243286	24563.923828	17081.751953	68.117126
500.649628	1095.899292	24183.425781	16890.695313	68.412682
501.002136	1097.017700	23780.343750	16700.154297	68.786812
501.354584	1097.232788	23425.330078	16526.156250	69.100937
501.707001	1100.394409	23066.189453	16344.714844	69.400269
502.059387	1102.523804	22777.572266	16186.565430	69.591736
502.411682	1104.524048	22528.509766	16069.927734	69.853493
502.764038	1104.265747	22331.023438	15981.291016	70.086189
503.116302	1104.480957	22180.294922	15931.177734	70.349342
503.468475	1104.803589	22081.445313	15918.681641	70.620827
503.820709	1104.954102	22042.277344	15934.406250	70.827827
504.172852	1105.943481	22012.984375	15950.493164	71.002632
504.524902	1106.136963	22011.242188	15978.795898	71.143669
504.876953	1104.588379	22025.222656	16018.737305	71.289177
505.228912	1102.631226	22043.330078	16066.163086	71.456696
505.580872	1100.222290	22069.484375	16111.630859	71.587685
505.932770	1096.953125	22046.945313	16140.860352	71.808655
506.284698	1098.996460	22020.857422	16146.537109	71.922577
506.636505	1100.695557	22023.373047	16157.421875	71.963669
506.988342	1100.179443	22017.480469	16177.336914	72.079842
507.340088	1100.136353	22023.845703	16197.253906	72.153160
507.691772	1100.674072	22037.267578	16223.042969	72.229370
508.043396	1099.684692	22092.435547	16273.671875	72.282036
508.395050	1100.308472	22172.833984	16338.282227	72.312042
508.746582	1101.555786	22285.621094	16428.875000	72.353065
509.098114	1101.039551	22428.003906	16531.554688	72.352142
509.449646	1099.405151	22588.648438	16648.773438	72.358841
509.801086	1100.200806	22787.533203	16782.056641	72.308830
510.152557	1097.447754	22997.281250	16930.398438	72.297127
510.503906	1094.909790	23199.820313	17064.351563	72.243866
510.855194	1096.114136	23391.392578	17185.912109	72.166840
511.206482	1096.028076	23587.716797	17313.607422	72.104759
511.557709	1094.587158	23787.632813	17448.183594	72.064354
511.908844	1096.458496	23983.898438	17574.005859	71.993843
512.260010	1095.275513	24123.050781	17668.855469	71.972130
512.611206	1094.415161	24226.591797	17721.228516	71.877426
512.962219	1096.178711	24295.806641	17746.736328	71.770798
513.313232	1099.512573	24345.337891	17759.812500	71.670074
513.664246	1099.899780	24347.125000	17748.669922	71.616158
514.015137	1101.663330	24320.863281	17712.085938	71.537445
514.366028	1103.362549	24279.220703	17680.169922	71.526184
514.716919	1103.319458	24214.181641	17615.001953	71.445549
515.067688	1103.706665	24113.310547	17524.429688	71.364647
515.418396	1106.158569	24022.310547	17435.085938	71.255104
515.769104	1105.857422	23951.248047	17352.837891	71.117104
516.119812	1105.857544	23936.923828	17315.025391	70.996109
516.470459	1104.136719	24019.449219	17337.587891	70.841064
516.821106	1103.943237	24165.898438	17423.232422	70.762817
517.171631	1102.631348	24438.595703	17577.552734	70.598846
517.522095	1104.072266	24824.949219	17822.531250	70.479935
517.872559	1101.104126	25355.875000	18163.175781	70.345222
518.222961	1099.491089	25922.587891	18517.306641	70.167778
518.573364	1099.878296	26497.068359	18873.201172	69.981453
518.923645	1097.447876	27009.025391	19186.035156	69.808899
519.273987	1095.813232	27444.949219	19437.271484	69.609337
519.624207	1095.017334	27744.255859	19606.345703	69.462875
519.974487	1094.845215	27967.314453	19721.109375	69.313553
520.324646	1097.146606	28054.812500	19749.156250	69.190002
520.674744	1099.426392	28052.123047	19682.351563	68.946442
521.024780	1100.351196	27905.179688	19547.345703	68.819672
521.374878	1100.415771	27644.673828	19304.755859	68.581085
521.724792	1102.588013	27274.068359	18981.039063	68.312721
522.074707	1100.544800	26863.738281	18648.351563	68.111923
522.424744	1100.136230	26471.169922	18331.710938	67.918297
522.774536	1100.265381	26182.986328	18077.787109	67.686127
523.124329	1099.082520	25963.087891	17881.654297	67.497459
523.474182	1100.846191	25892.238281	17785.535156	67.300331
523.823914	1101.426880	25940.138672	17762.523438	67.077133
524.173523	1102.029175	26151.929688	17848.578125	66.852753
524.523132	1100.588013	26546.710938	18066.326172	66.673172
524.872803	1100.007324	27100.238281	18367.179688	66.411613
525.222290	1098.544678	27838.675781	18808.740234	66.230774
525.571777	1098.695190	28641.482422	19305.060547	66.102119
525.921326	1100.544800	29516.044922	19819.875000	65.877182
526.270752	1100.996582	30439.126953	20368.482422	65.673874
526.620178	1103.706543	31463.101563	20986.728516	65.492157
526.969482	1103.663574	32721.966797	21750.802734	65.301224
527.318787	1102.416138	34311.453125	22737.484375	65.148140
527.668030	1102.416138	36333.511719	24048.011719	65.128822
528.017212	1100.588013	38582.175781	25598.914063	65.360962
528.366394	1098.243652	40807.421875	27182.376953	65.687920
528.715515	1099.964233	42803.152344	28556.894531	65.838921
529.064636	1102.201050	44375.453125	29577.619141	65.803734
529.413635	1101.125732	45543.597656	30283.298828	65.662804
529.762695	1100.652466	46308.406250	30697.263672	65.467995
530.111633	1098.028442	46743.621094	30901.267578	65.292694
530.460510	1096.415405	46786.746094	30848.486328	65.116776
530.809387	1096.996216	46388.996094	30506.832031	64.933846
531.158142	1095.017456	45484.238281	29838.060547	64.752304
531.506958	1094.006470	44063.546875	28773.044922	64.415489
531.855652	1096.759521	42402.140625	27455.033203	63.813168
532.204407	1096.049683	40807.140625	26127.861328	63.034817
532.552979	1095.081909	39555.570313	25083.861328	62.372528
532.901611	1093.963379	38680.625000	24351.060547	61.875935
533.250183	1090.522217	38107.992188	23858.849609	61.506981
533.598755	1091.511597	37671.503906	23496.244141	61.248600
533.947205	1093.834473	37317.117188	23187.455078	60.992878
534.295593	1093.770020	37026.246094	22926.173828	60.759533
534.643982	1093.146362	36790.921875	22705.373047	60.542217
534.992249	1098.329590	36565.519531	22484.333984	60.297993
535.340576	1099.211426	36345.882813	22282.611328	60.100426
535.688843	1096.867065	36093.421875	22052.625000	59.879490
536.037048	1098.351074	35689.480469	21731.593750	59.648941
536.385315	1097.727417	35053.160156	21258.611328	59.374546
536.733398	1093.404297	34230.691406	20676.691406	59.097431
537.081421	1097.963989	33336.515625	20046.892578	58.777233
537.429443	1098.781372	32512.695313	19480.330078	58.514034
537.777466	1099.964233	31796.349609	18984.224609	58.261780
538.125427	1099.491089	31195.392578	18564.625000	58.031605
538.473267	1100.652466	30718.154297	18221.205078	57.805527
538.821167	1096.157349	30342.189453	17938.244141	57.587593
539.169006	1093.490356	30042.281250	17695.548828	57.349747
539.516846	1095.404541	29785.906250	17480.552734	57.110008
539.864502	1094.393677	29725.533203	17365.419922	56.829826
540.212219	1093.597778	29960.894531	17433.126953	56.602215
540.559875	1096.415527	30618.244141	17732.476563	56.351730
540.907410	1095.189453	31609.419922	18229.054688	56.150410
541.254944	1091.812866	32749.218750	18798.587891	55.932487
541.602478	1088.629517	33840.988281	19332.310547	55.701885
541.949951	1091.081543	34812.960938	19802.408203	55.487198
542.297363	1090.995483	35665.558594	20208.888672	55.294678
542.644714	1090.952393	36393.113281	20548.781250	55.117954
542.992126	1094.909912	36898.488281	20759.992188	54.924908
543.339355	1094.909912	37133.890625	20819.826172	54.732170
543.686646	1095.641113	36962.300781	20661.718750	54.552273
544.033813	1096.028320	36350.503906	20247.173828	54.322590
544.380920	1098.544800	35273.101563	19581.843750	54.084969
544.728027	1098.157593	33893.148438	18759.787109	53.854652
545.075134	1099.577026	32485.080078	17914.111328	53.574207
545.422180	1102.609741	31191.500000	17145.564453	53.318535
545.769165	1100.136230	30101.513672	16487.095703	53.055962
546.116150	1101.512695	29163.873047	15910.872070	52.773037
546.463013	1103.620605	28333.876953	15397.131836	52.491287
546.809875	1101.147095	27652.351563	14973.296875	52.246780
547.156677	1100.222290	27041.158203	14594.561523	52.019478
547.503418	1099.340576	26523.564453	14270.305664	51.804787
547.850098	1099.555664	26053.443359	13962.115234	51.545315
548.196777	1099.060913	25603.150391	13681.391602	51.347881
548.543396	1099.684448	25154.019531	13391.228516	51.099079
548.890015	1099.921143	24654.173828	13085.512695	50.885044
549.236633	1099.577026	24106.105469	12753.452148	50.654640
549.583069	1099.383545	23500.394531	12400.740234	50.450207
549.929504	1100.953613	22837.970703	12025.447266	50.257557
550.275879	1100.846191	22184.296875	11647.121094	50.021580
550.622253	1102.136597	21534.345703	11262.407227	49.726734
550.968567	1102.953979	20971.779297	10925.182617	49.435375
551.314819	1105.255249	20489.205078	10638.178711	49.179470
551.661072	1104.029297	20128.861328	10423.077148	48.983601
552.007263	1102.029175	19904.488281	10264.197266	48.728561
552.353394	1103.190430	19757.716797	10148.117188	48.486496
552.699524	1104.480957	19663.253906	10063.290039	48.272633
553.045593	1102.373169	19617.462891	10003.196289	48.073345
553.391602	1104.631470	19596.880859	9951.964844	47.843464
553.737549	1101.168579	19576.876953	9901.958008	47.634377
554.083435	1101.770996	19533.453125	9840.058594	47.409061
554.429321	1103.706543	19478.607422	9780.351563	47.220089
554.775146	1101.942993	19381.414063	9707.461914	47.077503
555.120972	1101.018188	19274.023438	9615.084961	46.850071
555.466675	1102.115112	19112.755859	9499.199219	46.622906
555.812439	1104.222900	18910.880859	9369.484375	46.416691
556.158081	1103.556274	18680.765625	9222.389648	46.189548
556.503662	1102.824829	18449.339844	9077.705078	45.973961
556.849182	1104.739136	18225.054688	8929.600586	45.705120
557.194702	1103.061401	18018.554688	8804.079102	45.526413
557.540161	1104.588501	17818.185547	8680.795898	45.329605
557.885620	1104.330322	17654.017578	8581.191406	45.178265
558.231018	1102.050537	17501.242188	8484.319336	45.016052
558.576355	1100.265381	17381.789063	8397.297852	44.817871
558.921692	1102.115112	17289.044922	8325.977539	44.627750
559.266968	1101.985962	17192.560547	8262.185547	44.499344
559.612183	1100.007324	17111.517578	8197.811523	44.329388
559.957336	1100.157837	17059.187500	8144.923340	44.142818
560.302429	1099.211426	17023.355469	8099.927734	43.962902
560.647522	1098.673706	17005.095703	8077.237793	43.872620
560.992554	1097.211182	16996.341797	8046.911133	43.711197
561.337524	1097.168213	17005.804688	8018.112305	43.504322
561.682434	1095.275513	17022.130859	7999.142090	43.347332
562.027344	1095.662720	17028.236328	7974.579590	43.175179
562.372253	1099.039307	17038.152344	7950.254395	42.983665
562.717102	1099.189941	17022.064453	7924.573730	42.865273
563.061829	1097.813354	17045.335938	7902.290527	42.667927
563.406494	1096.974609	17039.208984	7871.512695	42.494282
563.751160	1093.253784	17025.033203	7848.392090	42.400402
564.095825	1093.963501	17028.648438	7828.045410	42.260529
564.440369	1093.060059	17044.304688	7809.784180	42.107838
564.784973	1095.146362	17087.515625	7805.052734	41.956924
565.129456	1094.329224	17191.763672	7836.239258	41.881893
565.473877	1093.705444	17318.017578	7867.555176	41.751228
565.818298	1091.167480	17494.449219	7930.810547	41.696796
566.162659	1090.801880	17690.904297	8000.281738	41.623119
566.507019	1087.661621	17885.035156	8062.117188	41.521111
566.851196	1090.844849	18033.029297	8107.864258	41.417446
567.195435	1090.930786	18181.650391	8155.333008	41.334728
567.539612	1094.350586	18281.232422	8176.519043	41.206825
567.883789	1093.038574	18350.337891	8183.551758	41.087040
568.227844	1094.350708	18373.931641	8175.485840	40.979790
568.571960	1094.243042	18368.382813	8150.773438	40.850254
568.915955	1094.888306	18297.125000	8099.132324	40.717056
569.259888	1096.587402	18214.556641	8049.298340	40.616447
569.603821	1099.405151	18094.542969	7975.913574	40.461620
569.947632	1099.426514	17961.880859	7905.818359	40.364178
570.291504	1100.544922	17867.480469	7852.435547	40.269081
570.635193	1097.146606	17825.111328	7819.291992	40.185078
570.979004	1099.275879	17849.824219	7808.988770	40.056675
571.322632	1100.695435	17954.826172	7834.153320	39.951382
571.666321	1101.190186	18077.617188	7871.490723	39.880596
572.009949	1102.072021	18221.482422	7913.754883	39.789238
572.353455	1102.566772	18347.908203	7955.759766	39.739384
572.696960	1101.254761	18457.728516	7984.431152	39.657688
573.040405	1099.146973	18533.201172	7998.389160	39.573364
573.383850	1098.587769	18599.574219	8011.336426	39.499195
573.727173	1099.297607	18644.417969	8013.144043	39.406094
574.070557	1099.577148	18657.710938	8004.518555	39.326172
574.413879	1100.953735	18657.667969	7995.506348	39.270176
574.757019	1099.813721	18610.478516	7971.267578	39.241539
575.100281	1097.447876	18509.691406	7922.056641	39.194309
575.443420	1097.125122	18375.201172	7865.598145	39.173767
575.786499	1094.458130	18211.888672	7792.062012	39.127392
576.129517	1091.361084	18045.138672	7713.858887	39.062080
576.472534	1090.909302	17876.083984	7637.160645	39.000202
576.815491	1091.296509	17689.091797	7558.592285	38.964790
577.158447	1090.221191	17486.445313	7471.226563	38.917530
577.501343	1090.049072	17278.958984	7377.386230	38.837307
577.844116	1089.167236	17046.132813	7277.589355	38.781944
578.187012	1089.769531	16777.798828	7163.597168	38.716320
578.529724	1090.479370	16485.935547	7036.419922	38.621399
578.872375	1090.285645	16187.790039	6911.694824	38.558754
579.215027	1092.199951	15902.677734	6790.991699	38.478111
579.557617	1093.834473	15631.097656	6676.160645	38.400116
579.900146	1097.426270	15371.777344	6568.555176	38.328388
580.242676	1098.200684	15135.146484	6465.768555	38.238861
580.585144	1098.372681	14925.915039	6373.692383	38.150814
580.927612	1099.964355	14731.781250	6295.316895	38.111961
581.269958	1099.598633	14558.878906	6225.975098	38.088043
581.612305	1099.770752	14418.152344	6166.957520	38.046562
581.954590	1099.125488	14297.750000	6112.348145	37.982918
582.296814	1099.512573	14190.812500	6075.290527	38.008278
582.639038	1100.200806	14103.037109	6036.274902	37.961521
582.981140	1099.340576	14021.628906	5993.043945	37.870251
583.323242	1099.512573	13931.920898	5955.512207	37.841686
583.665283	1098.265015	13851.415039	5923.938477	37.839069
584.007324	1100.028687	13781.985352	5902.064941	37.865105
584.349304	1102.007446	13709.204102	5873.459473	37.847054
584.691284	1102.308472	13636.271484	5845.670898	37.844074
585.033142	1102.351685	13574.391602	5817.430664	37.805195
585.374939	1104.566895	13519.954102	5793.126953	37.764107
585.716736	1107.836060	13466.011719	5772.479492	37.745407
586.058411	1106.567139	13411.962891	5743.744629	37.684101
586.400085	1110.137451	13364.902344	5726.387207	37.669022
586.741760	1109.212769	13321.413086	5711.138184	37.683014
587.083374	1109.234253	13313.434570	5708.793457	37.688328
587.424988	1108.954590	13301.734375	5697.716797	37.635078
587.766541	1107.018799	13296.334961	5694.942383	37.638893
588.107971	1106.717773	13323.178711	5698.211426	37.584484
588.449341	1105.964966	13351.696289	5708.750488	37.586857
588.790710	1102.932373	13396.068359	5723.375977	37.585556
589.132080	1100.415894	13431.727539	5736.689453	37.597569
589.473267	1097.619873	13485.625977	5759.638672	37.633324
589.814514	1098.308105	13539.355469	5783.404297	37.658375
590.155762	1094.866943	13599.190430	5802.955566	37.651688
590.496948	1095.662720	13625.881836	5814.784668	37.661930
590.838013	1093.791504	13636.012695	5817.838379	37.665154
591.179077	1093.425903	13644.377930	5824.937012	37.698425
591.520081	1093.124756	13635.905273	5817.387207	37.665195
591.861023	1092.909668	13604.050781	5807.794922	37.685493
592.201965	1094.049683	13567.380859	5790.652832	37.653156
592.542847	1094.350708	13520.362305	5776.307129	37.678677
592.883606	1094.350586	13474.616211	5758.605957	37.674923
593.224365	1093.812988	13432.461914	5737.979980	37.639187
593.565125	1095.038940	13414.565430	5722.644043	37.563171
593.905823	1093.662354	13405.166016	5724.300293	37.612282
594.246521	1093.640991	13429.277344	5729.097168	37.577763
594.587097	1095.813232	13479.755859	5745.550293	37.546501
594.927612	1095.060425	13530.147461	5759.401855	37.509518
595.268127	1098.501831	13617.537109	5795.922852	37.522228
595.608582	1096.738159	13737.702148	5839.476074	37.518799
595.948975	1097.361816	13919.186523	5904.817383	37.494320
596.289307	1097.921021	14138.355469	5983.558105	37.465294
596.629700	1097.920898	14373.543945	6069.590820	37.449615
596.969971	1098.695190	14583.634766	6147.857910	37.442974
597.310242	1095.791748	14748.256836	6211.909180	37.473946
597.650391	1097.017700	14833.452148	6238.192383	37.427288
597.990540	1098.157715	14878.662109	6251.914063	37.398895
598.330627	1096.910278	14868.209961	6244.106445	37.376255
598.670654	1098.071655	14827.321289	6225.803223	37.348957
599.010620	1096.802612	14715.005859	6181.927734	37.340645
599.350525	1097.211182	14560.815430	6120.177734	37.307743
599.690491	1095.447510	14334.487305	6034.103027	37.303726
600.030334	1095.963745	14053.934570	5929.638184	37.302711
600.370178	1098.437134	13753.231445	5815.666504	37.276226
600.710022	1097.920898	13462.032227	5707.480957	37.281773
601.049683	1100.523438	13202.603516	5606.522461	37.233261
601.389343	1100.222290	13015.827148	5538.169922	37.244839
601.728943	1098.458618	12878.240234	5493.003418	37.305828
602.068542	1099.340454	12808.490234	5466.978516	37.301071
602.408081	1099.555542	12813.306641	5467.752930	37.291191
602.747498	1096.587402	12897.833984	5491.712402	37.242889
603.087036	1097.426270	13028.324219	5541.934082	37.252079
603.426453	1096.200317	13228.691406	5612.803223	37.227333
603.765869	1096.049683	13460.613281	5695.437012	37.198135
604.105103	1095.404419	13732.733398	5797.729004	37.209797
604.444336	1095.038940	14025.156250	5902.150391	37.177631
604.783569	1092.694580	14310.224609	6005.732910	37.170620
605.122681	1093.339722	14537.800781	6082.904297	37.112419
605.461792	1093.898926	14714.596680	6147.514160	37.102470
605.800842	1091.619141	14821.641602	6181.368652	37.070221
606.139954	1091.188965	14841.731445	6191.885742	37.094513
606.478943	1092.458008	14791.166016	6175.303223	37.104561
606.817932	1092.909668	14669.818359	6131.534180	37.111721
607.156799	1096.307861	14492.224609	6066.106445	37.099354
607.495605	1098.050049	14283.812500	5987.430176	37.080750
607.834412	1097.770386	14040.190430	5887.159668	37.005360
608.173157	1099.641602	13796.268555	5794.653320	36.978416
608.511841	1100.394409	13598.674805	5722.000000	36.977932
608.850464	1098.394165	13492.187500	5677.994141	36.950756
609.189148	1099.856567	13428.931641	5651.453125	36.917583
609.527710	1100.674072	13402.199219	5642.075684	36.917385
609.866211	1099.684692	13397.660156	5640.806641	36.925770
610.204712	1098.544800	13401.832031	5642.441406	36.932377
610.543091	1097.619873	13421.490234	5641.194336	36.868080
610.881409	1095.705566	13409.467773	5635.387207	36.866734
611.219788	1093.963623	13372.667969	5616.352051	36.831158
611.558044	1093.812988	13309.347656	5595.188477	36.849598
611.896301	1091.705078	13199.097656	5555.462891	36.868034
612.234436	1092.737671	13027.894531	5492.271973	36.861969
612.572693	1094.694824	12793.499023	5410.477051	36.890797
612.910767	1094.221558	12539.918945	5312.206543	36.852142
613.248840	1094.178589	12277.156250	5214.839844	36.847622
613.586792	1096.888550	12025.425781	5121.387207	36.825592
613.924805	1098.695190	11788.512695	5031.956543	36.794468
614.262695	1099.727661	11571.411133	4951.430664	36.782082
614.600525	1101.254761	11383.238281	4881.486328	36.765587
614.938293	1102.953979	11231.972656	4833.222168	36.827538
615.276123	1103.040039	11102.236328	4783.861328	36.811172
615.613892	1100.824707	10995.621094	4741.899902	36.797878
615.951538	1099.362183	10904.834961	4701.077637	36.731686
616.289185	1099.835205	10831.686523	4674.084961	36.727337
616.626770	1097.641479	10767.162109	4653.974609	36.778793
616.964294	1097.727417	10728.683594	4639.650391	36.776440
617.301819	1096.781128	10697.540039	4624.035645	36.739330
617.639221	1097.619873	10677.108398	4616.099121	36.729301
617.976624	1097.211060	10657.708008	4613.926270	36.783813
618.313965	1096.243286	10649.468750	4608.850586	36.768810
618.651306	1096.028198	10634.735352	4599.903320	36.733227
618.988525	1094.178589	10620.928711	4593.708984	36.733727
619.325684	1097.297363	10602.753906	4588.503418	36.728439
619.662964	1099.921387	10589.075195	4581.277344	36.687737
620.000000	1099.813721	10570.235352	4573.061035	36.674683
620.337097	1098.974854	10547.738281	4562.134766	36.651989
620.674133	1097.942505	10512.743164	4550.585449	36.672504
621.011047	1097.017578	10483.148438	4538.498047	36.665592
621.347961	1096.092773	10448.735352	4526.345703	36.676830
621.684875	1094.737793	10412.816406	4511.226074	36.665161
622.021729	1095.813232	10378.791016	4498.601074	36.656212
622.358521	1095.684204	10344.764648	4485.395020	36.649170
622.695313	1097.103638	10306.308594	4478.082031	36.713032
623.031982	1096.824097	10284.176758	4467.112793	36.684002
623.368652	1095.296997	10261.485352	4463.176758	36.742424
623.705261	1095.963745	10251.548828	4460.897461	36.752796
624.041748	1097.469238	10251.785156	4457.413086	36.703384
624.378296	1099.340454	10255.355469	4460.058105	36.705029
624.714722	1099.426636	10275.638672	4464.080078	36.667126
625.051147	1101.190186	10313.256836	4474.404297	36.617344
625.387512	1100.501953	10365.477539	4496.169922	36.650589
625.723877	1098.609253	10452.929688	4526.367188	36.643581
626.060120	1099.770630	10549.522461	4565.662109	36.677063
626.396301	1098.716797	10676.248047	4604.978516	36.609241
626.732483	1099.362183	10795.445313	4649.371582	36.612820
627.068604	1102.287109	10906.147461	4694.861328	36.644485
627.404724	1102.631348	11006.245117	4725.746094	36.583767
627.740662	1102.609863	11092.771484	4760.804688	36.617973
628.076721	1104.029175	11155.273438	4777.495117	36.547375
628.412720	1104.889526	11191.256836	4791.647461	36.551891
628.748596	1103.620605	11195.687500	4792.571777	36.552982
629.084473	1105.943481	11178.266602	4782.441895	36.500999
629.420227	1107.277100	11111.333984	4762.009277	36.532501
629.755981	1106.911377	11027.991211	4725.746582	36.476223
630.091675	1108.180298	10910.987305	4688.946289	36.527969
630.427307	1110.503174	10777.874023	4639.972656	36.509094
630.762939	1106.266113	10644.050781	4589.106445	36.516239
631.098450	1105.362671	10515.711914	4545.595703	36.557972
631.434021	1104.781982	10400.235352	4499.762207	36.523022
631.769470	1103.685059	10291.620117	4464.510254	36.578674
632.104980	1102.846313	10191.930664	4431.043457	36.617523
632.440308	1102.029053	10108.780273	4400.459473	36.621758
632.775635	1101.813965	10030.147461	4372.176270	36.629032
633.110901	1099.211426	9979.409180	4349.765137	36.604523
633.446106	1098.480103	9941.985352	4335.591309	36.604393
633.781250	1099.641602	9918.605469	4321.245605	36.530415
634.116394	1099.232910	9898.128906	4313.007324	36.524742
634.451538	1102.158081	9885.289063	4304.791504	36.463459
634.786560	1102.867798	9865.500977	4294.575195	36.424068
635.121582	1102.502075	9830.788086	4288.315918	36.499882
635.456543	1102.308594	9802.785156	4275.195801	36.467972
635.791443	1103.534424	9758.627930	4258.011230	36.446476
636.126221	1104.502441	9707.848633	4240.848145	36.454952
636.461060	1105.190674	9659.993164	4223.706055	36.453388
636.795776	1107.190918	9596.716797	4200.972168	36.442333
637.130493	1105.943481	9518.750000	4174.581543	36.475796
637.465210	1103.878784	9428.092773	4148.363281	36.573837
637.799805	1102.028931	9344.297852	4118.102051	36.592754
638.134399	1101.233276	9254.458984	4087.603271	36.628082
638.468933	1101.254761	9165.372070	4057.169434	36.655155
638.803345	1101.125610	9083.641602	4017.895508	36.539482
639.137756	1100.050293	9002.297852	3990.601807	36.578854
639.472168	1100.394409	8935.709961	3964.749268	36.556984
639.806519	1100.007324	8868.152344	3937.434326	36.526443
640.140747	1096.695190	8796.789063	3908.097412	36.511272
640.474976	1094.071167	8722.736328	3882.868164	36.556812
640.809204	1094.759277	8651.587891	3851.810791	36.484241
641.143372	1095.899292	8599.172852	3825.850098	36.383461
641.477478	1095.770264	8539.037109	3800.836670	36.342464
641.811462	1095.469116	8489.138672	3779.909180	36.307274
642.145447	1096.630615	8438.615234	3761.089844	36.290722
642.479370	1098.974976	8393.835938	3745.539307	36.279850
642.813293	1100.846069	8347.163086	3726.117920	36.229053
643.147095	1100.846191	8300.597656	3708.222900	36.214817
643.480957	1101.039673	8259.368164	3698.953125	36.292179
643.814758	1104.373413	8223.168945	3689.124023	36.308819
644.148438	1105.362793	8195.423828	3674.283447	36.232700
644.482117	1105.986450	8168.646973	3672.089600	36.333374
644.815735	1103.061401	8131.695801	3661.378174	36.398491
645.149292	1102.717163	8109.973145	3659.141602	36.482533
645.482788	1101.899902	8092.078125	3654.151611	36.511971
645.816223	1099.942749	8076.871582	3652.345215	36.583466
646.149658	1099.706177	8067.816895	3654.968994	36.670811
646.483032	1100.502075	8075.860840	3661.378174	36.713181
646.816345	1100.093384	8077.473633	3664.303223	36.750324
647.149658	1098.200684	8077.538574	3663.357178	36.753578
647.482849	1096.200317	8084.291992	3665.766357	36.770638
647.816101	1096.824097	8078.957520	3669.121338	36.841137
648.149231	1098.308105	8086.378418	3667.185303	36.760895
648.482239	1100.523560	8096.530762	3670.970947	36.741631
648.815247	1100.953613	8095.196777	3673.057617	36.774586
649.148254	1099.426636	8089.260742	3674.648682	36.842396
649.481201	1100.222412	8077.538574	3670.756104	36.841293
649.814087	1101.082764	8073.194824	3668.626709	36.825912
650.146973	1098.630859	8060.848633	3661.808594	36.815536
650.479736	1098.931885	8054.697266	3661.786865	36.845043
650.812500	1101.921509	8054.976563	3665.077393	36.863735
651.145203	1101.104248	8043.039551	3662.238281	36.893658
651.477844	1100.803101	8051.212402	3663.571777	36.872196
651.810486	1097.705933	8047.298340	3662.948486	36.912132
652.143005	1096.716675	8036.156250	3664.088867	36.996822
652.475525	1096.716675	8036.543457	3659.593506	36.929985
652.807922	1097.426392	8025.961426	3654.237549	36.902622
653.140381	1097.168213	8024.478027	3650.990479	36.866005
653.472717	1095.383057	7998.733887	3645.677490	36.942848
653.805115	1095.727173	7972.062988	3636.149414	36.944420
654.137390	1093.770020	7941.564453	3626.105225	36.980305
654.469543	1093.296753	7907.625000	3613.501465	36.983906
654.801758	1095.619629	7876.094238	3602.532227	36.972523
655.133850	1096.867065	7834.734375	3589.778076	36.998520
655.465881	1097.490723	7790.793457	3581.347412	37.109581
655.797974	1099.082397	7760.961426	3567.151611	37.047646
656.129944	1099.921143	7724.742188	3558.763428	37.115601
656.461853	1098.114502	7702.911133	3556.871094	37.226830
656.793762	1096.974487	7684.500000	3555.300537	37.317902
657.125610	1097.189575	7687.489258	3553.580322	37.272820
657.457397	1096.845581	7706.740234	3566.571045	37.364071
657.789124	1098.265137	7744.443359	3581.820068	37.368168
658.120789	1096.652100	7805.526367	3605.350098	37.393726
658.452393	1095.963867	7895.795410	3642.301025	37.447063
658.783997	1096.393921	8007.443848	3684.994385	37.455967
659.115540	1099.706177	8137.502930	3732.871094	37.414619
659.447083	1099.082520	8251.990234	3781.199951	37.496883
659.778503	1097.383301	8362.735352	3826.474121	37.563091
660.109924	1099.276001	8457.262695	3859.338379	37.511108
660.441284	1099.770630	8524.668945	3885.277344	37.515759
660.772522	1100.394287	8568.072266	3904.333496	37.547672
661.103760	1101.082520	8577.277344	3907.387451	37.536541
661.434998	1102.028809	8569.641602	3907.171875	37.564121
661.766113	1104.007690	8515.679688	3887.901367	37.560940
662.097229	1104.029419	8421.323242	3855.273193	37.599194
662.428345	1104.717651	8297.867188	3811.396729	37.628571
662.759277	1102.179565	8148.234863	3756.293213	37.668079
663.090332	1102.609741	8003.937988	3704.179443	37.696655
663.421204	1101.942993	7856.973145	3647.484131	37.683636
663.752075	1102.846313	7713.859375	3599.026367	37.757908
664.082886	1102.867798	7589.284668	3553.558594	37.781891
664.413635	1100.889160	7478.367676	3513.273682	37.826618
664.744324	1099.233032	7379.688965	3476.129639	37.845921
665.075012	1097.899536	7287.720215	3439.802246	37.834743
665.405640	1097.963989	7214.679199	3415.175781	37.883270
665.736206	1098.394165	7161.597168	3393.108643	37.846569
666.066772	1095.727051	7110.623047	3378.267822	37.948135
666.397278	1096.867065	7076.941895	3365.664307	37.939281
666.727661	1095.555054	7038.851074	3348.500977	37.907349
667.058044	1097.469238	7009.146973	3338.994385	37.916904
667.388306	1097.512329	6988.822266	3326.583740	37.836597
667.718567	1098.673828	6970.820313	3321.250000	37.849468
668.048828	1099.899780	6964.669922	3320.045410	37.855629
668.378967	1102.889404	6962.884277	3323.357910	37.891987
668.709167	1103.921875	6958.732910	3327.250977	37.974396
669.039246	1101.878540	6962.690918	3325.981934	37.948723
669.369263	1102.416260	6956.776367	3330.433838	38.057404
669.699341	1104.846558	6948.473633	3330.756836	38.091244
670.029236	1105.083130	6938.924805	3331.423584	38.162506
670.359131	1107.147827	6934.085449	3332.176025	38.185211
670.688965	1106.502686	6921.546875	3327.315430	38.190815
671.018738	1105.384277	6902.124512	3323.529785	38.265396
671.348511	1103.878662	6880.379883	3314.195313	38.263935
671.678223	1104.308716	6849.687500	3303.290771	38.273922
672.007813	1102.867676	6814.112793	3288.063477	38.261284
672.337341	1100.157715	6783.227051	3272.534424	38.225414
672.666992	1102.201050	6750.986328	3258.640381	38.175278
672.996460	1102.115112	6716.401855	3241.003662	38.097248
673.325867	1100.673950	6688.054199	3226.829834	38.052818
673.655273	1097.275635	6651.426270	3209.150635	38.023369
673.984619	1095.382935	6617.271484	3194.438965	38.013374
674.314026	1096.415283	6586.729492	3184.910889	38.039635
674.643250	1098.243652	6561.845215	3173.511719	37.983517
674.972412	1098.802856	6540.853516	3164.972656	37.966751
675.301514	1098.243652	6515.022949	3155.595459	37.981091
675.630676	1097.404663	6495.687012	3147.486816	37.976563
675.959778	1100.243774	6470.328125	3135.894287	37.907234
676.288757	1099.189941	6442.131348	3130.732178	38.022919
676.617737	1098.265137	6422.817383	3122.709473	38.020931
676.946594	1098.566284	6406.148438	3115.568848	38.002289
677.275513	1100.673950	6395.158203	3110.277588	37.956551
677.604309	1101.899902	6392.383301	3109.180664	37.941349
677.933044	1100.781494	6398.320313	3109.825928	37.924107
678.261780	1100.803101	6410.879883	3113.998535	37.912739
678.590393	1099.340576	6432.216797	3121.720215	37.922871
678.919067	1101.254761	6468.823242	3131.420410	37.822819
679.247620	1100.523315	6513.860840	3146.992188	37.804199
679.576111	1099.125366	6559.737305	3167.811768	37.883785
679.904541	1098.179077	6620.088867	3185.685059	37.804058
680.232971	1098.006958	6676.332520	3208.182617	37.828121
680.561401	1097.490845	6732.962891	3228.486084	37.813957
680.889709	1097.082153	6787.829590	3247.391602	37.786064
681.217957	1096.350830	6834.244141	3261.823486	37.739853
681.546143	1094.006470	6873.323730	3272.642090	37.697113
681.874390	1095.318481	6900.359375	3283.761719	37.699017
682.202454	1096.393799	6914.985840	3287.525879	37.657429
682.530579	1096.157227	6905.263672	3286.837402	37.711140
682.858521	1099.017700	6874.012695	3280.363525	37.772251
683.186523	1099.426514	6833.169922	3265.845215	37.783672
683.514465	1099.641602	6772.193848	3246.402344	37.844707
683.842346	1100.157715	6708.701660	3222.593018	37.842892
684.170166	1101.727905	6635.251465	3193.256104	37.797405
684.497925	1100.673950	6558.102051	3169.446289	37.907459
684.825623	1100.609375	6474.780762	3143.443604	38.012077
685.153320	1103.814087	6395.049805	3118.859619	38.082703
685.481018	1100.932007	6318.846680	3089.780518	38.115772
685.808533	1097.920898	6247.827637	3063.175537	38.160976
686.136047	1096.910034	6188.508301	3041.710205	38.196262
686.463623	1094.716309	6143.836426	3018.997803	38.111225
686.791016	1093.898926	6115.273438	3005.189697	38.063099
687.118408	1093.038696	6102.132324	2994.457031	37.959328
687.445740	1093.705566	6096.776855	2988.391602	37.870457
687.772949	1094.221558	6093.271484	2988.391602	37.890602
688.100220	1095.705688	6093.701660	2983.896729	37.778961
688.427429	1093.985107	6090.109375	2977.680664	37.703140
688.754517	1094.995972	6091.464355	2970.475586	37.536106
689.081604	1098.157593	6083.226563	2963.764893	37.423901
689.408630	1102.158203	6065.138672	2955.269531	37.338680
689.735657	1102.394653	6042.167480	2942.837891	37.257648
690.062622	1104.502441	6012.873535	2929.545898	37.182262
690.389465	1104.244385	5970.202637	2913.177979	37.175282
690.716248	1105.685425	5911.765137	2891.648682	37.160500
691.043091	1103.599121	5852.058105	2869.860840	37.196526
691.369812	1101.125732	5789.728027	2846.611084	37.228264
691.696533	1100.910645	5724.429688	2823.338867	37.253620
692.023132	1104.050781	5671.025391	2804.368896	37.230732
692.349670	1102.287109	5605.705078	2784.989990	37.365017
692.676270	1101.039673	5552.150391	2765.396240	37.391937
693.002747	1098.523315	5502.918457	2746.662598	37.420334
693.329163	1099.146973	5454.503906	2727.692871	37.391788
693.655518	1098.566284	5414.843262	2713.282227	37.409924
693.981873	1098.286743	5380.150879	2700.592529	37.420750
694.308167	1097.318726	5352.255371	2690.741943	37.448814
694.634399	1099.340576	5318.573730	2679.235352	37.445068
694.960571	1100.588013	5295.774902	2668.179932	37.366436
695.286743	1100.222412	5279.320801	2661.942871	37.369793
695.612854	1098.652222	5266.910645	2655.683838	37.354488
695.938904	1098.630737	5266.072266	2652.414795	37.283886
696.264832	1098.845825	5277.858887	2654.092285	37.215637
696.590820	1100.846191	5295.279785	2661.834961	37.215721
696.916687	1100.394409	5332.553223	2673.169922	37.162491
697.242554	1100.114868	5381.053711	2690.849365	37.158543
697.568359	1099.856689	5452.417480	2716.099854	37.133156
697.894043	1100.738525	5550.967285	2747.824219	37.011261
698.219788	1099.534058	5673.821777	2787.700195	36.905552
698.545349	1101.792358	5811.623535	2833.920898	36.776871
698.870972	1102.136597	5945.833984	2873.431396	36.569065
699.196533	1102.846313	6066.235840	2914.791260	36.506199
699.521973	1101.211670	6169.517578	2949.031738	36.458340
699.847412	1101.125488	6241.720215	2978.992432	36.530151
700.172852	1103.534424	6290.349609	2992.521240	36.419010
700.498169	1104.201172	6309.813965	2998.435791	36.388313
700.823486	1103.749512	6299.876953	2988.477539	36.271782
701.148682	1104.244263	6248.881348	2964.560791	36.160305
701.473816	1103.663574	6161.343750	2929.029541	36.090973
701.799072	1104.351685	6041.027832	2884.830322	36.066345
702.124146	1100.867554	5895.203125	2830.974365	36.086479
702.449158	1100.544922	5739.484863	2780.021973	36.203896
702.774109	1103.018433	5585.810059	2722.337402	36.123005
703.099060	1102.674316	5439.813965	2667.255371	36.074032
703.424011	1102.502197	5303.388672	2615.227539	36.009666
703.748840	1100.630981	5186.169434	2573.931641	36.061356
704.073608	1099.426514	5079.683105	2533.797852	36.037159
704.398315	1100.846069	4983.585449	2502.009033	36.086971
704.723022	1103.513062	4910.414551	2474.070068	36.001904
705.047668	1101.942993	4846.686523	2453.228760	36.084866
705.372253	1101.770996	4791.173828	2431.268799	36.035583
705.696716	1102.953857	4744.007324	2414.772217	36.028538
706.021240	1102.674316	4704.539551	2397.845459	35.958347
706.345764	1097.641357	4671.353027	2385.284668	36.030979
706.670044	1099.942749	4651.285645	2377.649414	35.978130
706.994446	1097.189697	4638.187500	2369.927979	35.942928
707.318665	1095.318604	4627.347168	2364.164063	35.923985
707.642883	1094.587158	4623.282227	2361.841064	35.912819
707.967102	1093.038574	4619.604980	2362.529541	35.997932
708.291260	1092.113770	4615.281250	2360.314209	35.996029
708.615295	1095.447510	4613.969727	2362.142334	36.000763
708.939331	1096.630493	4619.562012	2366.228760	36.038116
709.263367	1096.415527	4626.874512	2368.831299	36.041088
709.587280	1097.641479	4638.832520	2376.122559	36.103138
709.911194	1098.888794	4662.556152	2382.897461	36.030540
710.234985	1098.071533	4684.344238	2390.317627	36.033123
710.558716	1101.104248	4710.605469	2397.608887	35.919220
710.882568	1104.373413	4740.694824	2411.718262	35.952400
711.206177	1105.212158	4770.397949	2423.655273	35.972069
711.529785	1105.319702	4803.110840	2432.408936	35.888702
711.853394	1104.459351	4831.093262	2441.657227	35.882191
712.176880	1103.857178	4846.105469	2446.389160	35.875011
712.500427	1102.394653	4857.935059	2449.701416	35.875175
712.823792	1100.458984	4866.709961	2449.228271	35.811985
713.147217	1100.351440	4868.839355	2446.432373	35.719391
713.470520	1099.878052	4855.547363	2440.968994	35.708439
713.793823	1100.437378	4835.544922	2433.570557	35.691963
714.117004	1100.523438	4811.112305	2424.601318	35.683765
714.440247	1098.200684	4783.754395	2408.341309	35.548000
714.763367	1098.415771	4748.201172	2395.823730	35.547512
715.086365	1097.232788	4712.841797	2385.091064	35.619404
715.409485	1096.781128	4687.011230	2377.369873	35.668709
715.732361	1097.275879	4667.696777	2370.121582	35.649738
716.055298	1097.405029	4649.586426	2362.464844	35.613605
716.378174	1100.308472	4628.573242	2356.420898	35.601421
716.700928	1100.760132	4606.527832	2347.516602	35.563011
717.023804	1101.340820	4585.686035	2340.913818	35.575493
717.346558	1101.728027	4558.823242	2333.514893	35.630688
717.669189	1098.609253	4527.421387	2322.997559	35.708820
717.991760	1097.469238	4488.470215	2310.307861	35.766388
718.314392	1096.587402	4450.594238	2295.983643	35.760101
718.636902	1099.577026	4408.395508	2278.583496	35.632252
718.959351	1100.157715	4350.775391	2259.269287	35.658195
719.281738	1098.566284	4297.457031	2237.438477	35.602100
719.604065	1098.781250	4234.267090	2215.005859	35.599735
719.926453	1097.727417	4175.249023	2194.702148	35.644745
720.248718	1095.963745	4124.210449	2179.302246	35.774448
720.570923	1096.028198	4073.709229	2162.203369	35.805553
720.893066	1093.705322	4031.316406	2146.631836	35.842953
721.215088	1096.178833	3985.740723	2134.393555	35.929829
721.537170	1098.501709	3947.241943	2122.628662	35.950169
721.859192	1100.587891	3913.947754	2112.627197	35.972622
722.181152	1099.103882	3881.728271	2102.303711	36.052288
722.503052	1100.480469	3859.360107	2092.517578	35.957970
722.824951	1102.652832	3835.615479	2085.183350	35.951115
723.146790	1103.190552	3823.097412	2079.720215	35.903057
723.468506	1104.330444	3809.010010	2075.697998	35.914330
723.790161	1104.480957	3791.265625	2069.611572	35.921398
724.111816	1107.599609	3779.392822	2064.535400	35.816238
724.433472	1109.083618	3764.789063	2057.846680	35.725460
724.755005	1108.933105	3761.132813	2054.534180	35.653465
725.076477	1107.642578	3755.927979	2053.050537	35.698872
725.397888	1106.309082	3752.292969	2051.372559	35.716904
725.719299	1106.760864	3754.831055	2050.447754	35.636776
726.040710	1105.642456	3757.368652	2054.835205	35.795280
726.361938	1102.781738	3763.111572	2057.566895	35.889729
726.683167	1101.319336	3769.628174	2061.051025	35.967789
727.004395	1098.523315	3782.791260	2064.685791	35.993515
727.325500	1098.888916	3802.943848	2070.385498	35.927399
727.646667	1097.361816	3818.666504	2080.666504	36.133575
727.967651	1096.738037	3837.765625	2090.388184	36.251007
728.288635	1095.533569	3854.434570	2100.604492	36.430122
728.609558	1096.609009	3870.242920	2108.433350	36.480099
728.930481	1097.748901	3888.051514	2116.778320	36.520390
729.251282	1097.533813	3895.902100	2123.015625	36.645706
729.572021	1097.856567	3901.946045	2124.134033	36.599316
729.892761	1101.147217	3904.398193	2128.715088	36.656292
730.213440	1103.082886	3907.000244	2129.790771	36.616909
730.534119	1103.125854	3909.043701	2132.974121	36.702721
730.854675	1105.298340	3910.914795	2136.609131	36.758793
731.175171	1103.986328	3916.764893	2137.210938	36.733238
731.495605	1106.180176	3921.561035	2139.469482	36.701580
731.816101	1105.470215	3924.852295	2138.609131	36.644161
732.136475	1105.083130	3927.583008	2139.060791	36.633400
732.456787	1101.405273	3927.024170	2139.727539	36.746719
732.777039	1100.803101	3935.347900	2142.760010	36.759232
733.097229	1101.018066	3941.176758	2147.018555	36.828945
733.417480	1098.867310	3944.983398	2150.115723	36.936245
733.737549	1097.125122	3943.112305	2150.803955	37.023315
734.057617	1098.179077	3932.616455	2144.329834	36.908585
734.377563	1095.189331	3911.086670	2138.759521	37.059952
734.697510	1096.071289	3878.867432	2129.338867	37.130554
735.017517	1093.770020	3843.358398	2118.047119	37.252014
735.337341	1093.189331	3805.761963	2106.368164	37.351212
735.657166	1093.683960	3767.800537	2097.055420	37.521603
735.976868	1096.243286	3729.903076	2086.215332	37.589218
736.296631	1096.479980	3685.919434	2074.364502	37.764332
736.616272	1096.609009	3646.989746	2060.427490	37.791161
736.935852	1094.200195	3613.695068	2047.286011	37.828449
737.255371	1092.995728	3579.648193	2037.843872	37.996792
737.574829	1092.716187	3553.386719	2034.144531	38.259018
737.894348	1093.167847	3539.879150	2027.692139	38.195118
738.213745	1090.952515	3535.707031	2024.831543	38.199299
738.533081	1090.780396	3536.954102	2025.412231	38.207909
738.852356	1092.436523	3542.008545	2028.359009	38.207592
739.171570	1091.425659	3550.095947	2030.703491	38.202675
739.490784	1090.414673	3554.031982	2031.671387	38.206291
739.809937	1089.769409	3559.795898	2034.746826	38.257786
740.129028	1086.263550	3556.870850	2038.446167	38.540424
740.447998	1089.360840	3549.062744	2037.564331	38.549530
740.767029	1089.791016	3542.073242	2037.607300	38.650375
741.085999	1090.866333	3529.534180	2035.542603	38.737389
741.404846	1093.941895	3505.854004	2030.058105	38.812202
741.723633	1096.566040	3479.054688	2025.003784	38.969238
742.042358	1097.619995	3447.330566	2015.819824	39.077148
742.361145	1098.308105	3413.713379	2005.603394	39.185162
742.679810	1098.630737	3378.698242	1996.333252	39.371754
742.998413	1098.071411	3342.435303	1985.923462	39.559185
743.316956	1096.544434	3307.721191	1974.631958	39.711323
743.635498	1100.953491	3277.159180	1962.995972	39.612179
743.953979	1099.835205	3247.563477	1955.941406	39.861012
744.272400	1103.276489	3222.377930	1948.241455	39.873737
744.590698	1101.018066	3197.170166	1940.326538	40.040436
744.909058	1098.652222	3172.715576	1932.476074	40.202427
745.227356	1099.361938	3152.347656	1927.142090	40.320793
745.545471	1099.835083	3136.452881	1922.259766	40.381886
745.863586	1101.706299	3118.794678	1920.625122	40.599056
746.181702	1101.835449	3099.072021	1914.882446	40.708599
746.499756	1105.083130	3085.199463	1913.140503	40.808582
746.817810	1108.782593	3073.305420	1913.312378	40.952938
747.135742	1106.696411	3063.347412	1916.409424	41.382599
747.453613	1107.449097	3057.948975	1915.420044	41.423790
747.771423	1105.448730	3051.646729	1917.506592	41.725346
748.089233	1108.997559	3048.893799	1920.431641	41.828735
748.406982	1110.008545	3053.905273	1928.174316	42.088951
748.724609	1109.685913	3058.378906	1932.110229	42.203892
749.042236	1107.018799	3059.346924	1940.476929	42.690475
749.359863	1104.480957	3064.616455	1946.649536	42.964813
749.677429	1103.362427	3072.724854	1957.124268	43.352196
749.994873	1101.577393	3079.026611	1967.297363	43.779633
750.312256	1100.243896	3083.586182	1973.921997	44.050797
750.629639	1103.491699	3088.361084	1978.782837	44.098171
750.946960	1104.222900	3091.178711	1990.569214	44.608253
751.264282	1104.782104	3090.511719	1997.387451	44.951000
751.581482	1103.943237	3088.726563	2003.366699	45.315952
751.898621	1101.728027	3083.779785	2010.141724	45.831985
752.215698	1100.243774	3078.725586	2020.551514	46.515854
752.532715	1102.738770	3077.456787	2029.240723	46.918190
752.849792	1101.534424	3074.101318	2037.865356	47.467640
753.166748	1101.620483	3069.283447	2044.576050	47.922615
753.483643	1101.469849	3068.767090	2053.867432	48.411472
753.800476	1100.501953	3066.680664	2062.427490	48.923607
754.117310	1095.877808	3065.132568	2073.289063	49.633560
754.434082	1092.780518	3060.593994	2082.967773	50.319160
754.750732	1091.791138	3060.551025	2091.377197	50.772369
755.067383	1092.264404	3061.110352	2103.400391	51.356785
755.383911	1093.511963	3057.410889	2111.057373	51.812515
755.700562	1093.425903	3055.905273	2116.735352	52.143703
756.016968	1093.382935	3049.216309	2123.144775	52.650795
756.333435	1095.490601	3043.925537	2131.167480	53.154297
756.649780	1097.447754	3042.161621	2140.265381	53.623192
756.966064	1096.996094	3042.914795	2148.847168	54.054214
757.282410	1097.017578	3046.441650	2161.364990	54.598045
757.598633	1096.630493	3049.990723	2173.366211	55.122231
757.914795	1100.329956	3059.734131	2183.604004	55.285889
758.230896	1099.577148	3072.273438	2199.605957	55.762703
758.546936	1096.673706	3082.403320	2216.145508	56.375843
758.862976	1095.146606	3093.996094	2233.760742	56.963474
759.178894	1094.221558	3103.352295	2254.666504	57.758556
759.494812	1095.296997	3115.203125	2271.270752	58.219227
759.810669	1094.931274	3124.688232	2286.627686	58.711285
760.126526	1094.027832	3134.172852	2304.629883	59.339020
760.442261	1093.662354	3138.109131	2318.179688	59.894802
760.757935	1092.414917	3141.571777	2333.278320	60.554832
761.073608	1095.877808	3145.593750	2350.441650	61.206722
761.389160	1094.006592	3143.851563	2367.519287	62.127270
761.704712	1095.576538	3141.012451	2382.510254	62.917332
762.020203	1098.351074	3145.658447	2395.415039	63.354630
762.335571	1100.458862	3166.349365	2419.504150	63.848747
762.650940	1102.394653	3207.171631	2457.960693	64.404266
762.966370	1100.329956	3283.697021	2525.000977	65.251099
763.281677	1100.867676	3390.075928	2609.893311	65.919106
763.596863	1098.243652	3507.316162	2697.430908	66.381866
763.911987	1100.415894	3602.295898	2775.074951	66.936028
764.227112	1102.867798	3678.735352	2839.986084	67.438179
764.542236	1103.319458	3740.076416	2889.045898	67.724350
764.857178	1103.685059	3780.877441	2926.448486	68.084885
765.172119	1102.609863	3804.622070	2953.118408	68.486313
765.487061	1099.082397	3818.322754	2973.206787	68.920883
765.801880	1095.899292	3806.385742	2977.121338	69.405334
766.116760	1094.608643	3769.692871	2960.216064	69.740135
766.431458	1094.243042	3686.671875	2913.780273	70.186584
766.746155	1093.124634	3573.044678	2844.395508	70.618042
767.060791	1095.296997	3442.340576	2764.471436	71.118172
767.375427	1094.716309	3328.520264	2694.140381	71.600914
767.689941	1093.232300	3229.862549	2632.756348	72.053833
768.004395	1090.027466	3144.906006	2582.147949	72.613564
768.318848	1087.769165	3074.574463	2539.519043	73.069557
768.633179	1088.134888	3014.631836	2504.546875	73.522667
768.947632	1090.457764	2957.291260	2471.639648	73.985275
769.261841	1091.188965	2908.618408	2444.453369	74.460358
769.576111	1091.877197	2861.257813	2417.589844	74.925240
769.890259	1093.038818	2827.167725	2393.156494	74.972382
770.204285	1094.501221	2789.485596	2371.906494	75.363838
770.518433	1092.630127	2756.814697	2351.517090	75.645874
770.832458	1091.081543	2725.714111	2335.708740	76.141098
771.146362	1090.844849	2697.301758	2317.599121	76.363968
771.460205	1091.619263	2670.524170	2304.092041	76.792007
771.774109	1093.490356	2651.468262	2291.875488	76.919266
772.087952	1094.608765	2632.154053	2281.379395	77.186058
772.401672	1094.888550	2615.657227	2274.109619	77.541122
772.715332	1098.071411	2602.666504	2266.710938	77.671364
773.028992	1098.630737	2589.718506	2259.419678	77.848465
773.342590	1098.049927	2572.082031	2253.999756	78.420937
773.656128	1097.103638	2557.994385	2245.568604	78.614021
773.969604	1099.555664	2543.970947	2242.385498	79.120583
774.283020	1100.200928	2532.851563	2237.416992	79.378464
774.596375	1099.577148	2521.043701	2232.642334	79.710999
774.909729	1100.695557	2507.816162	2224.361572	79.855698
775.223022	1101.900024	2492.523926	2219.307129	80.352936
775.536194	1105.836060	2481.941895	2215.543457	80.641136
775.849304	1105.857544	2466.456055	2211.026367	81.226669
776.162476	1104.674561	2453.142822	2202.960938	81.446960
776.475525	1104.739014	2438.840088	2199.992920	82.096771
776.788513	1105.427246	2430.839111	2193.045898	82.058922
777.101440	1103.857178	2424.859863	2192.228760	82.389809
777.414307	1102.502075	2417.826660	2187.905518	82.519814
777.727173	1100.566406	2414.213379	2182.055420	82.327217
778.039978	1102.781738	2408.384521	2178.269775	82.374825
778.352722	1101.211792	2403.846191	2175.667725	82.483307
778.665405	1098.566284	2402.491455	2170.462646	82.205360
778.977966	1092.823608	2397.759521	2165.257568	82.182884
779.290649	1092.436401	2399.566162	2165.128662	82.064713
779.603149	1092.156860	2396.124756	2168.053711	82.509460
779.915588	1090.328613	2397.006836	2168.139648	82.484810
780.227966	1090.199585	2391.801514	2168.376221	82.834595
780.540405	1090.048950	2385.219971	2165.687744	83.049942
780.852722	1088.307007	2382.596191	2162.719727	83.011795
781.164917	1089.554321	2373.412354	2162.160400	83.545540
781.477173	1089.876953	2365.260742	2158.912598	83.820702
781.789246	1090.737305	2355.926270	2156.181396	84.212250
782.101379	1091.360962	2343.107666	2150.696533	84.628586
782.413452	1092.500977	2335.429199	2144.824951	84.664902
782.725403	1091.683716	2324.244873	2137.361572	84.837807
783.037292	1092.586914	2315.189941	2127.209717	84.624588
783.349182	1094.264648	2301.854980	2117.079590	84.698837
783.661072	1094.049561	2294.843262	2108.476318	84.479691
783.972839	1094.845337	2286.003662	2100.281494	84.408272
784.284546	1096.609009	2271.679443	2092.065430	84.714615
784.596191	1097.211182	2261.699463	2082.903320	84.645950
784.907898	1095.383057	2254.236084	2077.762939	84.771744
785.219421	1096.652100	2247.138428	2071.332275	84.718971
785.530884	1095.189453	2243.331787	2069.654541	84.873192
785.842346	1094.737793	2236.341553	2068.041260	85.257553
786.153748	1096.479858	2227.588135	2061.976074	85.358429
786.465149	1096.845581	2220.232178	2060.663818	85.795776
786.776428	1098.093018	2214.403320	2059.524170	86.125801
787.087646	1100.114746	2210.489014	2062.685791	86.688881
787.398804	1100.028809	2215.650879	2071.202881	87.052246
787.709961	1101.448242	2228.491211	2087.054199	87.450607
788.021057	1103.448486	2243.998535	2105.701660	87.874542
788.332031	1105.255127	2260.581299	2121.983398	88.003571
788.643005	1103.792725	2278.411377	2138.974854	88.129211
788.953918	1105.513306	2290.907715	2150.782715	88.179039
789.264832	1108.137329	2298.671875	2162.181885	88.535400
789.575623	1107.040527	2307.898926	2173.000488	88.766502
789.886353	1104.803589	2315.555664	2177.022461	88.558090
790.197083	1102.480835	2321.470459	2179.753906	88.374260
790.507690	1098.695313	2320.459473	2178.743164	88.400681
790.818359	1099.792236	2312.114258	2169.580566	88.242920
791.128845	1098.394287	2292.391357	2155.449951	88.530846
791.439331	1097.297363	2270.732666	2137.404541	88.637794
791.749756	1095.619629	2247.246338	2119.122803	88.874557
792.060120	1096.092896	2224.662842	2096.668213	88.658691
792.370483	1097.361694	2201.928711	2077.418701	88.727707
792.680786	1093.597778	2184.206055	2057.158203	88.350731
792.990967	1093.619263	2169.795898	2038.510620	87.800766
793.301086	1095.189453	2154.396240	2026.208130	87.897728
793.611267	1093.275269	2141.577393	2015.045410	87.929817
793.921326	1095.254028	2130.070557	2006.463623	88.055183
794.231323	1095.834839	2122.757568	1999.000488	87.948746
794.541260	1097.576782	2120.929443	1991.773560	87.379143
794.851074	1098.308105	2121.144287	1985.622314	86.750374
795.161011	1099.297607	2123.252197	1987.041748	86.697609
795.470764	1099.512573	2126.284912	1997.193726	87.427475
795.780518	1099.598755	2132.049072	2005.861694	87.777878
796.090149	1102.050659	2141.147217	2018.400757	88.187195
796.399780	1099.663208	2146.158447	2028.918091	88.796860
796.709412	1098.458618	2155.600586	2036.790161	88.761169
797.018860	1099.512573	2160.504395	2044.124268	89.031006
797.328308	1100.222412	2166.117920	2046.791138	88.805023
797.637756	1098.953369	2165.515625	2051.394043	89.300056
797.947205	1098.738403	2166.655518	2055.695557	89.609688
798.256470	1097.942505	2161.364502	2057.373291	90.221077
798.565674	1098.243652	2157.278076	2052.297607	90.087151
798.874817	1099.125488	2148.309082	2042.360840	89.901840
799.183960	1098.501831	2141.921387	2030.617188	89.332748
799.493103	1098.480225	2131.447021	2015.991699	88.822937
799.802124	1101.749512	2121.531494	2005.172974	88.589867
800.111084	1102.265503	2105.830811	1997.387085	89.194153
800.419983	1103.319458	2098.023438	1986.203125	88.758430
800.728821	1102.846313	2086.774658	1977.363403	88.880157
801.037659	1104.997070	2080.709473	1967.491089	88.396339
801.346436	1102.781738	2071.482666	1957.274902	88.210213
801.655151	1102.953979	2065.804443	1949.101563	87.879440
801.963745	1103.642090	2057.674316	1940.433960	87.711067
802.272400	1102.201050	2050.490479	1931.959839	87.500587
802.580933	1102.201050	2039.693359	1925.034302	87.769600
802.889404	1100.630981	2028.745972	1918.302246	88.100212
803.197815	1099.082520	2021.282837	1914.065186	88.373711
803.506226	1099.297607	2016.185425	1906.064087	87.989662
803.814575	1100.566528	2007.926147	1899.998901	88.105354
804.122864	1101.190308	2004.979614	1898.321167	88.198746
804.431030	1100.007324	2001.473877	1895.589844	88.254250
804.739197	1102.201172	2001.990112	1893.976685	87.995689
805.047241	1102.416138	2005.754028	1896.364014	87.890465
805.355408	1101.426758	2007.345703	1899.375122	88.081650
805.663391	1099.146973	2007.990601	1901.999146	88.337769
805.971313	1099.168457	2010.550049	1908.989136	88.856377
806.279175	1098.286621	2015.131226	1911.613159	88.709312
806.587036	1097.641479	2015.045410	1912.301270	88.800552
806.894836	1098.566284	2019.046021	1913.764038	88.562271
807.202576	1098.351074	2019.497314	1918.517456	89.037590
807.510193	1096.888550	2016.873535	1914.581299	88.881096
807.817810	1095.210938	2012.937622	1911.355347	88.931099
808.125427	1093.791504	2003.044067	1907.376465	89.478432
808.432922	1094.114136	1993.773804	1898.729980	89.435577
808.740295	1094.587280	1982.503540	1892.212891	89.831177
809.047729	1097.576904	1975.276978	1882.340698	89.411385
809.355103	1097.039185	1967.017944	1870.511353	88.907021
809.662415	1098.329590	1958.005981	1863.564331	89.014282
809.969604	1100.652466	1948.585449	1856.380737	89.125946
810.276794	1098.867310	1934.863403	1849.799194	89.824806
810.583923	1098.996460	1925.744141	1836.636230	89.221870
810.890991	1101.254761	1915.011597	1835.066284	90.175774
811.197998	1102.093628	1908.214844	1830.893677	90.408249
811.505005	1103.018433	1904.429321	1823.645386	89.919785
811.811829	1101.706421	1894.557129	1817.408081	90.269409
812.118713	1101.899902	1888.190918	1810.095215	90.067841
812.425537	1099.835205	1879.695313	1804.309448	90.333412
812.732300	1098.222168	1872.963257	1800.588623	90.658218
813.038940	1097.684448	1866.187988	1796.351685	90.912689
813.345581	1098.845825	1863.585571	1791.125122	90.524826
813.652100	1099.060913	1860.918823	1786.135254	90.184052
813.958740	1097.426270	1856.810913	1783.876953	90.395653
814.265137	1096.953125	1852.681152	1774.262939	89.623489
814.571533	1097.921021	1844.830811	1767.917969	89.702522
814.877930	1098.329590	1838.356934	1765.487549	90.153152
815.184265	1099.039429	1836.184448	1762.476563	90.000900
815.490540	1097.770386	1834.356323	1761.616089	90.124680
815.796692	1097.254150	1834.635864	1763.293701	90.324936
816.102844	1099.211426	1837.539551	1763.895996	90.025635
816.408936	1100.523438	1839.324341	1764.820801	89.915611
816.714966	1099.211426	1841.475098	1764.240234	89.594688
817.020935	1100.673950	1842.270996	1765.487549	89.646202
817.326843	1103.964722	1845.712402	1770.004272	89.793274
817.632690	1102.158081	1852.294067	1773.166016	89.451508
817.938477	1101.835449	1856.961304	1779.145264	89.694954
818.244263	1101.792480	1867.629272	1784.952393	89.204376
818.549988	1100.760010	1873.328857	1794.588013	89.807922
818.855652	1103.470093	1885.846558	1805.987183	89.792717
819.161194	1103.706665	1902.515503	1819.365112	89.590706
819.466797	1103.771118	1925.163330	1840.873169	89.738136
819.772278	1103.255005	1952.435425	1870.124146	90.306976
820.077698	1102.738770	1988.138794	1905.010132	90.611176
820.383057	1101.813843	2028.810669	1944.047241	90.856125
820.688354	1098.673706	2080.752441	1990.977783	90.858711
820.993652	1101.663330	2157.772705	2064.492432	91.167557
821.298828	1101.684814	2304.586670	2199.584473	91.270927
821.604004	1100.630981	2572.469482	2456.024902	92.088493
821.909058	1099.835205	2981.638184	2833.684570	92.137665
822.214111	1096.953125	3465.762695	3283.847900	92.320412
822.519165	1097.985474	3929.153320	3711.621338	92.316521
822.824036	1096.824097	4320.793457	4073.085205	92.316673
823.128906	1095.361450	4639.757813	4365.293457	92.256386
823.433716	1096.178833	4895.488281	4603.301270	92.309471
823.738525	1094.673340	5104.998047	4797.067383	92.321556
824.043213	1094.049683	5264.351074	4946.763184	92.384537
824.347900	1090.887817	5364.987793	5041.312500	92.427055
824.652466	1090.414551	5375.397949	5052.496582	92.464348
824.957031	1093.103149	5241.897461	4921.233887	92.270920
825.261536	1093.318237	4947.731445	4646.661621	92.188957
825.565979	1093.167725	4563.447266	4284.723633	91.968269
825.870300	1095.705688	4180.711426	3933.691406	91.992882
826.174622	1097.125122	3872.071045	3650.839600	92.027542
826.478821	1098.157593	3660.776367	3456.686035	92.035866
826.783142	1096.867188	3533.771240	3336.112305	91.888931
827.087280	1097.469482	3464.859375	3269.674072	91.755257
827.391357	1099.361938	3414.552246	3225.324219	91.826675
827.695435	1101.211670	3371.278320	3188.179932	91.934227
827.999451	1102.416138	3325.917725	3144.303955	91.832085
828.303406	1102.179565	3276.857910	3101.201660	91.922661
828.607239	1101.964478	3237.540771	3060.874023	91.727448
828.911011	1102.459106	3190.309326	3020.481934	91.865929
829.214844	1099.942749	3143.464844	2975.572998	91.784195
829.518616	1098.609375	3076.682617	2915.715820	91.862442
829.822205	1098.781372	2972.583496	2815.337891	91.608208
830.125793	1098.673706	2829.640869	2686.956543	91.756958
830.429382	1099.168457	2664.308838	2532.270508	91.563805
830.732849	1098.824341	2509.278564	2384.080078	91.123535
831.036316	1096.824097	2377.025635	2255.139648	90.479156
831.339661	1096.651978	2268.861816	2153.879639	90.190987
831.642944	1093.748413	2178.850830	2071.159912	90.075508
831.946228	1096.286377	2102.174561	2004.871948	90.326698
832.249512	1098.222046	2045.307129	1953.403564	90.296165
832.552673	1099.082275	2010.528564	1919.678955	90.032372
832.855774	1102.932373	1996.849487	1905.182373	89.745461
833.158813	1104.997192	2013.561401	1922.539185	89.981750
833.461731	1103.921753	2059.653076	1966.286621	90.230888
833.764771	1103.900269	2119.768066	2024.078613	90.580521
834.067627	1103.104492	2185.711914	2085.484131	90.742004
834.370422	1102.975464	2241.912354	2144.609619	91.456703
834.673157	1101.663452	2288.176025	2189.346680	91.670601
834.975891	1101.900024	2330.245850	2224.555176	91.395691
835.278564	1098.308105	2362.443115	2250.149902	91.116989
835.581177	1096.910156	2382.402588	2265.162354	90.879738
835.883728	1095.985229	2384.703857	2271.227539	91.194641
836.186218	1092.802002	2366.636963	2256.279541	91.336601
836.488647	1090.307129	2323.083252	2219.178223	91.571457
836.791077	1092.092285	2254.881348	2154.008789	91.324951
837.093384	1090.586792	2176.441650	2079.053223	91.031174
837.395630	1090.737305	2090.258789	2004.248169	91.394821
837.697815	1093.017090	2016.034790	1931.163940	90.805069
838.000061	1094.286255	1949.897705	1866.897949	90.299362
838.302124	1096.006714	1888.363281	1809.837036	90.089531
838.604126	1098.996338	1832.979980	1763.745605	90.567314
838.906128	1098.566284	1788.243042	1721.740112	90.357376
839.208069	1100.910645	1753.615112	1687.391846	89.854019
839.510010	1100.050293	1732.945801	1664.249268	89.145676
839.811829	1101.061157	1722.105835	1645.838379	87.719490
840.113586	1101.985962	1716.105103	1638.203003	87.314819
840.415222	1102.351685	1711.566895	1634.374512	87.329208
840.716919	1102.050537	1712.921875	1631.901123	86.736855
841.018555	1100.630981	1710.857056	1628.718018	86.539574
841.320068	1100.523560	1709.136353	1628.653442	86.776009
841.621521	1097.641357	1705.630737	1628.008179	87.232910
841.922974	1097.512329	1703.781128	1623.555908	86.767387
842.224365	1096.221802	1698.167480	1619.275879	86.893898
842.525635	1095.727173	1688.209351	1613.318237	87.359772
842.826965	1097.619873	1671.691040	1598.305420	87.216637
843.128174	1098.673706	1646.139526	1580.002075	87.919350
843.429260	1097.447754	1618.781250	1558.558716	88.448364
843.730408	1101.663208	1595.208496	1539.911255	88.795914
844.031433	1103.362427	1574.797241	1520.381958	88.457520
844.332397	1105.384277	1555.224976	1503.541138	88.510635
844.633362	1105.083130	1538.384277	1487.216431	88.191154
844.934204	1106.029419	1523.844604	1473.773926	88.016068
845.235046	1107.234009	1509.713989	1464.224487	88.697701
845.535828	1108.266357	1497.755371	1454.137207	88.801186
845.836487	1108.546021	1485.108521	1443.598389	88.976563
846.137146	1107.642700	1474.763428	1435.339233	89.261246
846.437744	1105.556396	1465.708496	1429.058838	89.823837
846.738281	1105.147583	1457.642944	1420.068481	89.340439
847.038757	1102.179565	1449.856934	1410.153198	88.580292
847.339172	1099.749146	1439.275024	1400.754150	88.654510
847.639526	1098.329590	1433.338867	1395.140503	88.597816
847.939819	1097.748901	1427.101563	1388.666748	88.330193
848.240112	1097.512207	1421.896606	1385.096436	88.655380
848.540283	1096.479980	1416.369141	1375.826416	87.326012
848.840393	1097.533813	1413.573120	1372.299194	86.940254
849.140564	1094.888428	1410.583374	1366.298340	85.972206
849.440552	1096.888672	1405.034302	1363.244263	86.438217
849.740540	1097.082153	1402.818970	1357.845703	85.290199
850.040405	1098.910400	1400.259644	1354.468872	84.804749
850.340210	1097.985596	1397.183838	1352.920288	85.205948
850.640137	1098.695435	1395.613770	1351.866455	85.266212
850.939819	1098.652344	1392.194092	1348.360718	85.067413
851.239502	1096.910156	1388.193481	1348.425171	86.347206
851.539185	1096.178955	1387.333130	1345.370972	85.587646
851.838745	1095.748779	1385.676880	1345.048340	85.986687
852.138245	1094.458130	1379.504272	1342.682495	87.082169
852.437744	1095.920776	1376.944824	1342.919189	87.892273
852.737122	1094.608643	1377.912598	1341.047974	86.987610
853.036499	1095.641113	1375.912354	1342.145020	87.951912
853.335815	1094.802246	1372.449585	1342.058838	89.054192
853.635010	1095.963623	1369.954712	1340.574707	89.277023
853.934204	1095.899170	1371.395630	1339.929443	88.578369
854.233276	1095.985229	1372.707886	1337.993774	87.455269
854.532410	1095.791748	1372.428223	1333.369629	85.880898
854.831482	1096.157349	1368.943848	1330.638062	85.957596
855.130371	1094.974487	1366.298340	1331.218750	87.070953
855.429260	1096.049927	1364.212158	1330.659546	87.487946
855.728088	1094.479736	1360.727783	1326.013794	86.961784
856.026855	1094.221558	1355.888550	1322.335938	87.177361
856.325623	1094.264526	1354.361450	1320.529175	86.992432
856.624329	1094.737793	1354.124878	1318.830078	86.392998
856.922913	1095.124878	1352.404175	1316.356567	85.988922
857.221436	1097.426270	1348.661743	1315.711426	86.884689
857.519958	1097.727417	1345.715088	1317.840698	88.759766
857.818420	1097.942383	1343.327759	1320.980835	90.893135
858.116821	1099.856567	1341.951172	1321.690552	91.631111
858.415161	1102.179565	1343.241699	1317.410522	89.284431
858.713379	1102.738770	1342.553589	1314.377808	88.251022
859.011658	1107.018799	1343.542847	1314.205933	87.596649
859.309814	1108.115723	1343.306274	1314.872681	87.910400
859.607910	1107.470581	1341.456543	1313.087402	87.875710
859.905945	1108.868652	1340.897339	1310.872192	87.059723
860.203979	1107.707153	1340.209106	1309.689331	86.873322
860.501953	1107.879272	1338.531494	1308.076050	86.795944
860.799744	1107.707153	1335.713989	1304.677856	86.388069
861.097656	1109.642822	1335.950439	1298.720093	83.548790
861.395325	1109.513794	1336.337646	1293.816284	81.253578
861.693115	1108.416870	1335.090088	1293.945313	81.848419
861.990784	1108.804199	1335.434326	1293.773315	81.617180
862.288330	1107.384521	1333.261963	1292.654785	82.022476
862.585815	1104.739136	1334.401855	1291.407349	81.279282
862.883301	1106.244629	1334.294434	1291.557861	81.259979
863.180786	1106.072632	1332.702881	1291.364380	81.759499
863.478149	1107.018799	1330.745605	1291.106201	82.282227
863.775452	1105.319824	1330.272339	1290.632935	82.378769
864.072693	1108.072876	1331.455200	1290.676025	81.744675
864.369873	1109.750366	1331.390747	1293.472046	82.891792
864.667114	1108.997681	1328.680664	1294.956177	84.648567
864.964111	1108.223511	1327.970947	1294.353882	84.701950
865.261169	1106.653198	1327.347168	1292.934326	84.406982
865.558105	1105.190796	1328.938843	1294.009644	84.389046
865.855042	1105.362793	1327.261230	1292.375122	84.278343
866.151917	1103.878662	1326.099731	1289.622070	83.584969
866.448730	1100.652466	1325.863159	1290.353394	84.232643
866.745422	1102.373047	1327.454590	1289.600708	83.182144
867.042114	1100.781616	1327.583862	1287.019653	82.114723
867.338806	1096.609009	1324.422241	1288.095093	84.053978
867.635376	1094.673218	1321.066895	1286.202393	84.600052
867.931824	1096.458496	1322.765991	1287.880005	84.584694
868.228271	1096.781128	1320.077515	1288.718872	85.956497
868.524658	1096.307861	1319.561401	1291.557983	87.456673
868.821045	1098.824341	1318.120361	1291.170776	87.710861
869.117310	1098.458618	1315.474731	1292.332153	89.336006
869.413574	1096.888550	1314.958740	1290.482422	88.775948
869.709717	1097.856567	1312.205566	1289.364014	89.343758
870.005859	1095.038940	1308.957886	1290.848022	91.534241
870.301880	1096.437012	1308.463257	1294.052856	93.203484
870.597900	1095.490601	1308.334106	1292.310669	92.471725
870.893860	1095.813232	1311.990479	1292.934326	91.184944
871.189636	1092.371948	1311.753906	1289.385620	89.803955
871.485535	1092.845093	1311.108643	1289.536133	90.116302
871.781311	1092.006348	1310.269897	1286.697144	89.199867
872.077026	1090.264160	1310.700073	1285.342041	88.496414
872.372681	1091.963379	1311.818481	1285.191528	87.888863
872.668274	1093.210815	1312.807861	1288.718872	89.030365
872.963806	1092.715942	1314.592896	1288.740356	88.348251
873.259338	1093.275269	1318.679565	1287.922974	86.354919
873.554688	1093.812988	1319.346191	1287.019653	85.666618
873.850098	1096.695190	1320.507813	1287.514404	85.258469
874.145447	1096.501465	1318.335449	1287.213135	85.970451
874.440674	1100.265503	1317.582520	1286.869019	85.866959
874.735840	1099.362183	1320.335693	1286.611084	84.738167
875.031006	1101.577393	1323.110107	1287.535889	83.941780
875.326050	1100.437378	1323.970581	1290.568604	85.057266
875.621094	1101.190186	1325.389893	1289.622192	84.046501
875.916077	1103.599121	1325.583618	1289.901855	83.926010
876.210999	1106.502686	1326.917114	1288.826416	82.718597
876.505798	1107.363037	1322.895142	1288.697388	84.133339
876.800598	1106.997192	1321.776855	1286.847656	83.737198
877.095337	1104.007690	1322.077881	1284.137573	82.601791
877.390015	1106.201538	1323.088745	1283.535400	81.763176
877.684692	1105.728516	1322.335938	1284.761353	82.653137
877.979187	1107.470581	1319.884033	1284.159180	83.181458
878.273804	1105.534790	1319.862549	1286.654175	84.505798
878.568237	1106.136963	1322.701660	1286.697144	83.374710
878.862610	1103.061401	1325.884766	1292.246216	84.903488
879.156921	1100.889160	1330.896118	1296.934937	85.234718
879.451172	1098.071533	1337.219604	1305.000366	86.527496
879.745422	1098.759888	1348.382202	1314.012207	86.231201
880.039612	1097.555298	1361.480591	1325.712524	86.447655
880.333679	1098.587769	1381.999146	1346.833496	87.592010
880.627686	1097.017578	1415.164673	1377.761963	88.243576
880.921692	1096.221802	1469.020752	1429.273926	89.338264
881.215698	1096.350830	1556.386353	1509.068481	89.714302
881.509460	1099.362183	1671.239380	1615.361328	90.229012
881.803345	1099.469604	1812.289063	1748.173462	91.005356
882.097046	1101.512817	1959.898804	1883.480591	91.097450
882.390808	1102.115112	2098.131104	2013.582764	91.511345
882.684448	1103.685059	2225.781250	2131.619141	91.608376
882.978027	1101.082642	2336.439941	2234.685547	91.763161
883.271545	1102.566772	2432.086426	2325.901123	92.013260
883.565002	1103.147583	2508.117432	2398.103516	92.169662
883.858398	1102.588379	2560.855225	2449.228271	92.345230
884.151733	1101.211670	2581.567383	2470.026367	92.465256
884.445068	1100.846069	2557.413818	2447.614990	92.461815
884.738281	1099.233032	2489.964600	2382.252197	92.254982
885.031433	1099.168335	2383.198486	2284.325928	92.299828
885.324585	1100.738403	2262.624268	2170.742188	92.091988
885.617676	1098.738281	2142.071777	2056.061279	91.756180
885.910645	1097.576904	2026.401489	1946.155029	91.360428
886.203552	1099.168457	1921.829590	1847.691284	90.987991
886.496521	1099.942749	1824.979004	1758.024170	90.765312
886.789368	1100.673950	1740.645996	1675.841919	89.873924
887.082153	1102.760254	1661.023071	1604.951538	89.956070
887.374817	1103.728149	1595.316040	1540.728516	88.895676
887.667480	1103.577637	1537.825073	1488.399414	88.618088
887.960083	1104.222900	1492.916382	1448.803223	88.650917
888.252625	1103.642212	1455.427734	1413.702026	88.138878
888.545166	1103.190552	1428.241699	1390.258301	88.314636
888.837524	1105.599487	1404.969849	1372.514160	89.158684
889.129883	1107.255493	1386.171875	1355.286255	88.926567
889.422241	1106.696411	1371.417358	1342.295410	88.999001
889.714478	1093.511841	1322.292847	1309.990234	94.622536
890.006714	1107.707153	1357.544556	1317.088135	83.806900
890.298767	1110.072998	1317.324585	1322.766113	102.625565
890.590881	1113.858398	1319.453735	1273.082520	77.445396
890.882935	1094.694824	1328.207642	1300.526733	88.145874
>>>>>End Processed Spectral Data<<<<<
