Jaz Data File
++++++++++++++++++++++++++++++++++++
Date: Thu Dec 19 19:56:39 2019
User: jaz
Dark Spectrum Present: Yes
Reference Spectrum Present: Yes
Processed Spectrum Present: Yes
Spectrometers: JAZA2928
Integration Time (usec): 32200 (JAZA2928)
Spectra Averaged: 10 (JAZA2928)
Boxcar Smoothing: 5 (JAZA2928)
Correct for Electrical Dark: No (JAZA2928)
Strobe/Lamp Enabled: Yes (JAZA2928)
Correct for Detector Non-linearity: No (JAZA2928)
Correct for Stray Light: No (JAZA2928)
Number of Pixels in Processed Spectrum: 2048
>>>>>Begin Processed Spectral Data<<<<<
W	D	R	S	P
190.104553	0.000000	0.000000	0.000000	0.000000
190.488098	0.000000	0.000000	0.000000	0.000000
190.871613	1222.216064	1221.506226	1214.408447	1099.914063
191.255096	1238.540649	1233.335571	1236.411377	40.907600
191.638535	0.000000	0.000000	0.000000	0.000000
192.021942	1036.773560	1030.450195	1018.384338	290.813873
192.405334	1155.648560	1147.669067	1135.108521	257.410339
192.788696	1274.652466	1262.909058	1250.520630	205.492615
193.172012	1281.298462	1269.963745	1256.521362	218.594788
193.555313	1285.621704	1275.921387	1261.253052	251.214996
193.938568	1287.686401	1279.212036	1266.909668	245.171555
194.321793	1290.460938	1281.040405	1269.942261	217.808044
194.704987	1289.019897	1284.245117	1272.716919	341.439331
195.088150	1289.234985	1288.267090	1277.190552	1244.394043
195.471298	1289.493042	1288.654419	1279.728516	1164.352295
195.854401	1289.772705	1286.008911	1282.223389	200.577301
196.237457	1290.568481	1284.460205	1283.427856	116.900818
196.620499	1288.439331	1282.847168	1281.233887	128.848969
197.003494	1284.438721	1283.922485	1279.577881	941.593750
197.386475	1282.524536	1283.363403	1277.986328	-540.992432
197.769424	1281.212402	1279.771484	1274.889160	438.834290
198.152344	1276.953857	1280.287720	1272.179199	-143.217026
198.535217	1276.007568	1284.933472	1271.555298	-49.880337
198.918076	1276.867920	1284.051636	1270.028320	-95.209778
199.300903	1277.900269	1285.406616	1267.705444	-135.816040
199.683670	1277.362671	1288.159668	1268.178589	-85.061447
200.066422	1276.029175	1290.396362	1265.511597	-73.205544
200.449142	1272.996338	1293.257080	1264.500854	-41.930759
200.831848	1272.308105	1295.923950	1264.995483	-30.964897
201.214508	1273.082520	1297.494019	1266.135376	-28.458488
201.597137	1270.372437	1297.322144	1265.963379	-16.360317
201.979736	1270.437012	1300.462280	1266.458130	-13.251778
202.362274	1269.383057	1301.989380	1267.727051	-5.078787
202.744827	1266.500977	1300.075073	1266.199951	-0.896600
203.127319	1266.672974	1301.387085	1264.930786	-5.018672
203.509796	1265.511597	1299.752441	1264.242676	-3.705869
203.892227	1264.479126	1296.504761	1262.220825	-7.051541
204.274643	1262.263794	1295.128174	1258.994629	-9.947442
204.657013	1263.597534	1293.515137	1257.768677	-19.483036
205.039352	1263.640503	1292.095581	1256.628784	-24.641361
205.421661	1264.092163	1289.751221	1256.521362	-29.505373
205.803940	1264.909424	1291.364380	1256.134155	-33.170605
206.186188	1265.898804	1292.547241	1256.585815	-34.947598
206.568405	1264.973755	1292.353638	1254.757690	-37.312302
206.950592	1264.758911	1290.504028	1255.510376	-35.923454
207.332748	1262.328491	1288.654297	1256.800903	-20.996841
207.714859	1261.661621	1287.793945	1259.166748	-9.547077
208.096939	1260.478760	1288.116577	1259.661377	-2.957480
208.478989	1260.220581	1289.772583	1260.177612	-0.145400
208.861008	1258.392456	1290.697388	1261.231567	8.788477
209.243011	1256.542847	1291.041504	1260.242065	10.722791
209.624969	1254.563965	1292.740723	1258.048462	9.127274
210.006897	1256.112671	1290.503906	1257.639771	4.440374
210.388794	1252.155273	1290.288940	1257.983887	15.284691
210.770645	1254.585693	1292.611816	1260.070190	14.422972
211.152481	1253.273560	1292.353638	1261.296143	20.528574
211.534286	1252.133789	1291.041626	1261.231567	23.382895
211.916061	1251.208862	1291.536255	1258.263550	17.493538
212.297791	1251.488403	1293.773193	1258.069946	15.564800
212.679489	1250.240967	1292.418213	1258.779785	20.245083
213.061157	1249.832275	1292.224731	1259.532471	22.881891
213.442795	1248.907471	1290.891113	1261.683350	30.430611
213.824402	1249.208618	1290.891113	1262.371582	31.579117
214.205963	1249.251587	1292.998901	1263.167358	31.809431
214.587524	1250.778687	1292.697754	1262.328369	27.552338
214.969025	1250.004395	1290.955688	1259.037720	22.058704
215.350510	1251.638916	1293.730347	1256.048218	10.475533
215.731949	1254.628540	1297.343628	1254.241455	-0.906202
216.113358	1253.961792	1301.021484	1255.209351	2.651013
216.494736	1254.542603	1302.505493	1255.424438	1.838580
216.876083	1258.156006	1306.893066	1255.424438	-5.604703
217.257401	1258.543091	1309.237427	1254.349121	-8.273054
217.638702	1260.457275	1314.420898	1252.069214	-15.543919
218.019943	1260.607910	1316.421265	1253.144653	-13.371812
218.401169	1260.048706	1319.152710	1253.768433	-10.625800
218.782349	1262.521973	1321.927246	1251.595947	-18.392349
219.163498	1263.059692	1323.755371	1255.058716	-13.182119
219.544632	1262.479004	1325.282593	1258.715088	-5.993155
219.925705	1262.070313	1328.229248	1260.758301	-1.983121
220.306778	1261.704712	1329.971313	1263.059692	1.984837
220.687805	1260.328247	1330.100464	1264.350220	5.764433
221.068802	1259.102417	1331.304810	1265.705200	9.144826
221.449738	1259.575439	1335.176270	1267.985107	11.123777
221.830673	1260.844482	1340.144653	1273.727661	16.246092
222.211563	1260.564819	1345.908691	1276.523804	18.699625
222.592438	1260.005615	1350.704956	1278.136841	19.990471
222.973267	1257.661133	1356.189453	1282.309448	25.016478
223.354065	1257.489136	1360.684570	1283.836426	25.531448
223.734848	1257.983765	1367.545776	1287.084229	26.560724
224.115555	1257.058838	1371.632324	1290.676025	29.341158
224.496262	1259.274292	1378.923584	1290.955566	26.478447
224.876923	1259.166748	1387.118164	1292.762329	26.256514
225.257568	1258.413940	1396.839844	1295.730347	26.957676
225.638168	1257.467651	1405.399902	1299.386719	28.336666
226.018723	1255.510376	1415.358154	1301.128906	28.538733
226.399277	1256.671875	1429.618042	1304.978882	27.931816
226.779785	1256.284668	1448.308594	1309.237427	27.576126
227.160263	1256.564331	1469.364868	1315.646729	27.764214
227.540695	1255.811523	1498.056519	1323.970459	28.136364
227.921112	1255.682495	1535.050659	1331.928467	27.292292
228.301483	1256.327637	1587.142944	1345.994629	27.104849
228.681824	1255.940552	1654.613770	1369.094482	28.382627
229.062134	1257.187988	1742.345215	1395.033203	28.412483
229.442413	1256.822388	1835.195313	1424.047363	28.913002
229.822647	1256.736450	1917.162231	1447.061035	28.818466
230.202881	1256.370850	1976.868774	1463.321167	28.723236
230.583054	1255.919067	2022.057129	1477.451904	28.915524
230.963196	1257.231079	2059.610352	1490.313599	29.048922
231.343292	1256.671875	2089.786133	1502.573364	29.515938
231.723404	1257.381592	2115.445068	1509.111694	29.337002
232.103439	1258.865601	2118.628174	1510.294800	29.244026
232.483459	1259.683105	2104.992188	1504.788696	28.995974
232.863434	1258.586060	2070.450195	1489.560913	28.449940
233.243393	1258.285034	2015.389771	1472.354492	28.274748
233.623306	1259.682983	1957.339478	1454.416748	27.912558
234.003174	1262.436035	1916.216064	1442.092651	27.479673
234.383041	1264.672852	1894.191772	1436.436035	27.284832
234.762848	1262.823120	1883.179688	1434.070190	27.604620
235.142639	1262.758667	1874.318359	1431.381714	27.572622
235.522385	1263.877075	1869.134888	1424.628174	26.559113
235.902115	1263.984619	1861.284424	1419.423340	26.023567
236.281799	1261.790894	1867.285156	1420.993286	26.292965
236.661438	1260.521851	1877.587524	1422.821411	26.301830
237.041077	1259.962646	1886.642456	1428.306030	26.862743
237.420654	1258.521606	1899.052368	1430.542847	26.856047
237.800217	1259.618530	1908.171875	1430.306274	26.318228
238.179733	1258.392456	1913.032715	1429.123413	26.080118
238.559219	1255.639526	1920.151855	1429.489014	26.161966
238.938690	1257.015991	1925.270630	1429.015747	25.738655
239.318100	1257.059082	1934.110840	1429.790161	25.512241
239.697510	1257.037476	1949.876099	1437.317871	26.020546
240.076859	1259.962524	1975.535156	1447.598755	26.221828
240.456177	1263.360840	2010.206177	1454.330811	25.570217
240.835464	1266.350464	2052.361816	1466.934570	25.519238
241.214722	1268.243286	2118.499023	1483.216064	25.283308
241.593948	1271.835083	2203.584961	1507.132935	25.253328
241.973129	1272.007080	2313.103760	1536.427002	25.398211
242.352295	1273.104004	2449.937988	1572.667969	25.455074
242.731415	1274.028809	2594.773438	1611.984497	25.588268
243.110519	1276.136597	2738.920410	1647.451538	25.384130
243.489578	1279.879028	2854.095703	1675.411987	25.125700
243.868607	1280.524292	2936.471680	1694.769043	25.015574
244.247604	1278.610107	2992.048340	1707.394409	25.024790
244.626541	1278.545654	3030.138916	1718.514160	25.118189
245.005493	1277.706665	3060.357910	1722.234741	24.936346
245.384369	1278.093872	3082.252930	1727.418335	24.904924
245.763229	1277.039917	3105.395264	1732.063965	24.887068
246.142059	1276.695801	3143.271240	1741.248047	24.887943
246.520859	1278.373413	3211.688232	1759.766357	24.899874
246.899612	1283.535278	3337.144531	1786.758911	24.504351
247.278336	1285.127075	3500.261475	1830.678467	24.628366
247.657043	1286.783081	3670.949219	1876.296997	24.726212
248.035690	1292.074097	3825.097412	1913.291016	24.524721
248.414322	1294.633545	3956.468994	1944.520630	24.414999
248.792908	1296.332642	4057.556885	1970.029175	24.398474
249.171478	1296.440308	4134.491211	1992.117920	24.512514
249.550003	1297.472656	4170.065430	1999.000366	24.421412
249.928482	1299.150269	4163.354980	1994.462158	24.275915
250.306961	1300.655762	4105.949707	1977.449341	24.125586
250.685364	1299.193237	3984.687500	1943.488159	23.991671
251.063782	1295.364746	3801.374268	1898.730103	24.076738
251.442123	1292.891357	3596.402344	1845.260986	23.979465
251.820450	1288.761841	3427.220215	1798.975830	23.858961
252.198761	1285.148438	3321.271729	1771.961670	23.908829
252.576996	1283.771973	3252.962402	1757.508179	24.057409
252.955246	1284.266724	3202.784180	1746.711060	24.104256
253.333420	1282.395508	3155.960938	1734.279297	24.118923
253.711578	1282.094360	3120.386719	1728.601074	24.289211
254.089706	1281.234009	3094.641602	1723.761841	24.403109
254.467804	1278.696167	3074.488281	1719.869019	24.567034
254.845871	1278.954224	3059.067383	1715.201904	24.506739
255.223877	1279.362915	3035.322754	1710.061401	24.527809
255.601898	1279.986572	3003.275635	1700.619263	24.408714
255.979828	1278.072266	2957.786133	1691.026611	24.584803
256.357727	1275.921509	2903.155518	1675.906616	24.580675
256.735657	1277.986328	2861.386719	1660.958496	24.186691
257.113525	1275.469849	2853.579346	1656.893433	24.169653
257.491333	1275.814087	2883.432617	1663.991089	24.146090
257.869110	1277.921875	2942.601318	1675.218262	23.866240
258.246887	1279.448975	3030.805664	1696.876953	23.834549
258.624573	1278.932617	3157.036133	1727.934448	23.907192
259.002289	1279.792969	3341.295898	1773.682007	23.957718
259.379944	1281.255493	3600.080322	1835.065918	23.883238
259.757538	1282.567505	3934.035400	1911.785156	23.730919
260.135162	1288.331665	4299.199219	1998.634766	23.591309
260.512665	1292.977417	4625.433105	2079.117920	23.590427
260.890228	1291.622437	4865.914551	2138.544678	23.694826
261.267700	1292.805298	5017.804199	2172.010986	23.602844
261.645142	1295.235718	5103.686035	2190.206787	23.499613
262.022552	1294.805542	5155.219238	2202.681396	23.517580
262.399994	1293.084839	5181.330078	2207.950928	23.529022
262.777313	1296.268066	5170.166992	2203.133057	23.409618
263.154602	1296.010010	5093.103516	2182.700684	23.351826
263.531921	1295.536865	4939.601074	2144.050781	23.284822
263.909149	1293.988281	4691.892578	2084.279785	23.258204
264.286377	1290.611450	4405.685547	2013.969971	23.221230
264.663574	1287.385254	4147.826172	1951.553589	23.219090
265.040710	1289.364136	3970.470947	1908.731201	23.101170
265.417816	1288.245605	3871.103271	1885.846558	23.137199
265.794891	1288.611206	3844.691650	1878.834839	23.090963
266.171936	1288.976929	3865.167236	1880.275879	22.952456
266.548950	1289.170532	3915.560791	1886.448853	22.741417
266.925934	1287.621948	3973.847412	1894.041138	22.575140
267.302887	1286.912231	4037.941162	1905.935059	22.501503
267.679810	1286.202515	4101.884766	1918.667969	22.462246
268.056671	1288.869385	4178.711426	1935.874512	22.388945
268.433502	1289.901733	4260.613770	1953.231323	22.328978
268.810333	1290.138184	4344.064453	1967.770752	22.188898
269.187073	1288.159546	4420.568848	1982.546875	22.167835
269.563843	1291.127808	4495.244629	1995.580566	21.985865
269.940521	1290.525513	4550.649414	2006.721802	21.968376
270.317200	1290.826538	4602.333496	2018.787842	21.982780
270.693848	1291.837402	4668.664063	2035.822266	22.032072
271.070435	1295.063599	4802.809570	2068.148682	22.039368
271.447021	1298.569458	4975.347168	2109.035400	22.042831
271.823547	1300.892456	5153.003418	2148.373535	22.000433
272.200043	1301.236450	5297.623535	2178.571045	21.953194
272.576538	1301.731201	5417.380371	2201.756592	21.868368
272.952972	1303.602417	5524.404297	2224.619629	21.820908
273.329346	1305.452026	5626.266602	2246.063232	21.769304
273.705688	1305.495117	5704.082520	2263.355713	21.776550
274.082062	1306.118896	5763.487793	2274.109619	21.716639
274.458344	1304.914429	5788.759766	2276.948730	21.678587
274.834595	1307.861206	5770.413574	2269.011963	21.538139
275.210846	1304.936035	5690.102051	2251.934814	21.595507
275.587006	1301.774292	5586.046387	2225.931641	21.570930
275.963165	1300.913818	5493.390137	2204.380615	21.549717
276.339294	1300.182495	5446.760742	2193.497803	21.543434
276.715393	1300.763184	5423.337891	2191.561768	21.607822
277.091461	1301.064331	5414.713867	2188.658203	21.576799
277.467438	1302.591553	5411.982422	2189.239014	21.576130
277.843445	1302.526978	5416.176270	2188.658447	21.541248
278.219452	1303.602417	5431.188965	2190.378662	21.484135
278.595337	1304.226196	5454.288574	2194.658691	21.455881
278.971191	1304.570313	5486.980957	2202.057617	21.458612
279.347046	1307.344849	5512.983887	2205.240967	21.349813
279.722870	1309.753784	5537.567871	2207.649902	21.237835
280.098663	1310.377441	5561.312988	2212.403076	21.219461
280.474396	1310.979614	5597.123535	2219.285645	21.191683
280.850098	1312.055054	5649.495605	2227.652344	21.109161
281.225800	1313.108887	5724.945801	2242.492920	21.065693
281.601440	1313.517578	5833.131348	2259.677734	20.934536
281.977051	1313.797119	5982.203613	2289.788818	20.906315
282.352600	1314.700439	6137.964355	2322.373535	20.891935
282.728149	1317.496582	6282.090332	2350.764160	20.812731
283.103668	1317.475098	6392.448242	2371.670166	20.772427
283.479156	1319.604370	6480.501953	2387.973389	20.701225
283.854553	1319.668945	6564.039551	2404.190430	20.679726
284.229950	1320.851929	6661.018555	2420.923584	20.599951
284.605347	1322.895142	6765.247070	2437.742920	20.484669
284.980652	1320.787354	6863.861328	2456.218262	20.483776
285.355988	1320.916382	6953.184570	2473.080566	20.456488
285.731201	1319.260254	7031.666992	2491.469971	20.520418
286.106445	1319.776489	7098.621582	2502.804443	20.471703
286.481659	1320.228027	7166.027832	2514.956543	20.437384
286.856781	1320.464722	7232.853516	2529.732666	20.453119
287.231934	1318.894653	7298.947266	2541.218018	20.440010
287.607025	1316.464233	7346.716797	2549.133057	20.441414
287.982056	1316.894409	7365.557617	2552.810791	20.432884
288.357086	1315.732910	7357.599609	2548.014648	20.395712
288.732086	1311.667969	7326.048340	2542.745117	20.468895
289.107025	1310.850708	7290.688965	2535.066650	20.472391
289.481934	1310.571045	7261.221680	2527.625000	20.452454
289.856842	1311.818359	7236.639160	2522.269531	20.430174
290.231659	1311.022583	7237.713867	2522.764160	20.445498
290.606506	1311.689331	7248.296387	2523.000977	20.404108
290.981262	1312.184082	7264.535645	2523.301758	20.346878
291.355988	1309.947144	7285.590820	2529.345459	20.406141
291.730713	1311.646362	7312.411133	2538.034912	20.437204
292.105377	1310.377319	7339.360840	2542.895508	20.443218
292.480011	1310.484985	7357.492188	2546.788330	20.444880
292.854614	1312.549683	7364.181152	2549.950195	20.447388
293.229187	1313.861694	7380.162109	2550.122314	20.379152
293.603729	1313.517578	7405.820801	2557.263184	20.415031
293.978241	1312.506714	7443.051270	2566.339600	20.452227
294.352692	1314.033691	7473.033203	2574.964355	20.472979
294.727081	1313.603638	7494.950195	2587.869385	20.614695
295.101501	1311.560425	7516.952637	2600.128662	20.765299
295.475830	1314.722168	7571.195801	2617.184570	20.817835
295.850189	1317.367676	7669.617676	2641.402588	20.843557
296.224457	1320.572266	7832.454590	2683.343018	20.927448
296.598694	1323.067261	8046.718262	2738.016602	21.044361
296.972931	1324.938354	8301.458984	2796.131348	21.087776
297.347107	1326.938599	8538.541016	2855.063477	21.189810
297.721283	1328.874390	8714.519531	2896.208252	21.221354
298.095367	1331.175781	8806.853516	2917.522705	21.220108
298.469452	1331.648926	8820.446289	2927.975586	21.316195
298.843475	1328.057129	8795.217773	2921.480225	21.339077
299.217529	1329.046387	8756.138672	2912.790771	21.323881
299.591492	1328.444214	8698.583984	2900.832520	21.334579
299.965424	1325.196533	8618.014648	2884.980957	21.387951
300.339325	1323.841553	8485.374023	2857.837891	21.419947
300.713196	1320.120605	8301.758789	2817.983398	21.454317
301.087036	1318.830078	8080.785645	2772.816650	21.502457
301.460815	1318.313965	7865.405762	2730.488770	21.569498
301.834564	1318.830200	7684.758301	2694.549072	21.610657
302.208282	1315.969482	7537.729980	2662.802979	21.647144
302.582001	1314.270386	7416.811035	2633.294189	21.614340
302.955658	1316.012573	7311.185547	2609.484863	21.575230
303.329254	1312.506714	7221.174805	2588.858643	21.601349
303.702820	1310.958130	7142.068359	2569.738037	21.587311
304.076416	1310.807495	7075.995117	2553.542236	21.555843
304.449921	1307.430786	7021.515137	2536.980957	21.517885
304.823395	1309.603027	6969.917480	2523.452393	21.444910
305.196838	1308.527588	6920.384277	2508.052734	21.374836
305.570251	1308.183594	6865.559570	2487.663086	21.223677
305.943604	1304.828369	6805.509766	2469.854492	21.179668
306.316986	1304.312256	6761.246582	2456.261475	21.109823
306.690277	1306.420044	6728.404297	2442.668457	20.956320
307.063507	1305.581177	6712.079590	2438.366943	20.952299
307.436768	1305.989746	6721.134277	2436.538330	20.877533
307.809937	1307.258789	6748.900391	2442.323975	20.858875
308.183136	1308.011597	6803.165527	2451.787354	20.814262
308.556244	1310.054810	6877.411133	2464.176025	20.730148
308.929321	1309.172974	6967.895508	2479.511475	20.682026
309.302399	1310.226929	7060.530762	2495.534912	20.612963
309.675446	1309.043945	7157.489258	2516.548340	20.646587
310.048401	1308.054565	7253.113770	2536.959229	20.671024
310.421356	1309.237427	7348.910645	2555.090576	20.627823
310.794281	1307.839355	7451.095215	2579.824951	20.705399
311.167145	1308.248047	7564.163574	2603.784912	20.708988
311.539978	1312.119507	7661.917480	2623.873535	20.658201
311.912781	1313.324097	7733.152832	2634.283447	20.576241
312.285553	1312.012207	7749.498047	2634.154297	20.538176
312.658295	1312.399292	7722.591797	2627.680420	20.518591
313.031006	1312.227295	7670.456055	2616.646729	20.515453
313.403656	1311.839966	7615.524902	2604.516113	20.506674
313.776276	1313.603638	7565.497070	2588.922852	20.398928
314.148865	1316.313599	7539.773438	2577.824463	20.270250
314.521454	1316.442627	7537.837402	2577.824463	20.274904
314.893982	1316.958862	7538.117188	2573.372314	20.195812
315.266449	1319.109619	7502.563965	2560.317139	20.073046
315.638885	1316.851440	7438.685547	2543.842041	20.042860
316.011322	1317.281494	7355.319824	2526.399170	20.025009
316.383667	1318.270752	7282.773438	2507.923828	19.945553
316.756042	1318.722534	7224.507813	2493.083252	19.884922
317.128326	1319.754883	7172.802734	2478.436279	19.796206
317.500610	1316.872803	7118.904297	2468.241455	19.844234
317.872833	1315.517700	7058.530762	2456.046143	19.859409
318.245087	1312.592651	6980.606445	2440.302490	19.896032
318.617218	1311.775391	6885.283203	2420.041504	19.884535
318.989319	1309.839722	6806.929199	2403.781494	19.900381
319.361420	1307.043823	6756.320801	2390.898193	19.889875
319.733490	1306.484497	6723.543457	2384.747070	19.904943
320.105530	1303.193726	6701.368652	2376.509521	19.882938
320.477509	1298.741699	6679.085938	2372.637939	19.959620
320.849457	1295.622925	6653.877930	2367.196289	19.998552
321.221375	1294.181763	6644.543945	2361.840820	19.954893
321.593231	1295.364746	6637.381348	2355.840332	19.851597
321.965088	1295.988525	6641.230957	2355.754150	19.826336
322.336884	1297.451050	6650.199707	2356.076904	19.777239
322.708618	1298.461914	6680.289551	2356.937256	19.667582
323.080414	1300.526733	6712.143555	2362.120850	19.616949
323.452118	1301.537598	6778.215820	2375.262207	19.605398
323.823761	1302.053833	6891.305176	2391.909668	19.499138
324.195343	1303.752930	7021.881348	2416.514648	19.460243
324.566925	1308.140503	7158.586426	2442.130859	19.382973
324.938507	1310.484863	7291.462891	2466.628418	19.330343
325.310059	1310.893677	7398.078125	2488.760010	19.349936
325.681519	1313.496216	7515.812988	2509.622803	19.285158
326.052948	1312.979980	7614.276855	2524.893555	19.232765
326.424408	1312.786377	7704.826172	2539.325195	19.188534
326.795776	1312.786255	7749.067383	2549.391113	19.213034
327.167084	1309.667603	7759.735840	2547.950195	19.197977
327.538391	1308.957886	7717.257813	2536.314209	19.152605
327.909668	1310.183716	7621.181641	2518.269043	19.142540
328.280884	1310.743042	7526.180176	2496.782471	19.082157
328.652100	1311.216187	7433.007324	2473.123535	18.979860
329.023254	1311.689331	7353.792480	2457.487305	18.963562
329.394348	1310.377441	7294.752930	2443.291992	18.931208
329.765442	1308.334106	7218.937500	2426.623291	18.920052
330.136475	1307.710449	7146.906738	2411.890137	18.909788
330.507538	1307.065308	7068.682617	2395.500977	18.891150
330.878479	1305.237061	7011.600098	2382.510254	18.878454
331.249420	1306.183472	6968.970703	2370.895996	18.801916
331.620331	1307.000732	6957.249512	2369.197021	18.799107
331.991211	1306.032837	6973.101074	2369.132568	18.759254
332.362030	1306.054321	6997.232910	2375.455811	18.790510
332.732819	1303.387329	7032.440918	2385.327881	18.885153
333.103577	1303.451782	7069.478027	2389.823242	18.840904
333.474304	1304.312256	7093.954590	2395.587158	18.848743
333.845001	1305.193970	7117.806641	2397.307617	18.788687
334.215668	1306.075806	7138.390625	2400.189941	18.759518
334.586273	1307.280396	7167.339355	2407.072266	18.767590
334.956818	1307.753540	7190.611328	2409.395264	18.726301
335.327362	1309.108521	7225.347168	2415.137695	18.694803
335.697876	1309.818237	7243.090820	2417.396240	18.667236
336.068329	1310.441895	7256.706055	2419.031006	18.643456
336.438751	1310.312988	7261.888672	2419.052490	18.629343
336.809174	1313.345581	7257.523438	2417.116943	18.568949
337.179504	1315.646973	7261.846680	2419.116943	18.557566
337.549896	1316.485840	7286.837891	2421.353760	18.505909
337.920135	1315.797607	7324.413574	2430.515869	18.551996
338.290375	1315.668457	7372.655762	2441.356445	18.584949
338.660614	1316.980347	7418.403320	2449.163818	18.556057
339.030792	1318.636475	7470.968262	2456.541016	18.495499
339.400940	1318.249390	7504.671875	2466.736084	18.564634
339.771027	1317.582642	7537.944824	2473.726074	18.586432
340.141083	1319.088257	7578.401367	2482.608887	18.588631
340.511139	1319.712036	7612.470215	2488.330078	18.570839
340.881134	1318.528931	7659.206543	2496.159180	18.572624
341.251068	1318.141846	7686.134766	2499.557129	18.552395
341.621002	1319.733276	7708.438965	2506.439697	18.575068
341.990875	1323.131714	7728.937012	2512.074707	18.560398
342.360718	1325.304077	7735.474609	2510.741211	18.493067
342.730560	1324.400757	7744.852051	2511.924072	18.495949
343.100311	1326.293457	7763.907715	2513.795166	18.446301
343.470032	1328.272217	7813.010742	2519.817627	18.374611
343.839752	1330.057373	7885.707520	2530.162842	18.306429
344.209442	1330.982178	7960.534180	2542.594482	18.275930
344.579041	1331.993042	8052.932617	2558.940430	18.255594
344.948639	1334.509521	8144.105957	2577.910645	18.259541
345.318176	1334.853516	8244.891602	2594.493408	18.229132
345.687714	1334.552368	8335.805664	2612.237549	18.249378
346.057190	1333.756592	8412.267578	2626.540527	18.263502
346.426636	1331.971558	8482.621094	2639.832275	18.290096
346.796051	1332.552246	8530.927734	2647.726074	18.270426
347.165405	1330.508911	8543.187500	2653.554688	18.343334
347.534729	1331.261719	8527.056641	2646.822510	18.282354
347.904083	1331.498291	8478.491211	2639.036865	18.294947
348.273315	1331.261597	8410.589844	2626.798828	18.300285
348.642517	1330.874512	8338.624023	2611.958008	18.280954
349.011719	1329.304443	8267.605469	2594.859131	18.240124
349.380890	1329.691528	8203.016602	2586.320313	18.282690
349.749969	1329.261475	8157.311035	2574.749023	18.240751
350.119049	1329.390503	8122.855957	2566.984619	18.217421
350.488098	1330.616577	8108.423828	2562.188477	18.170654
350.857117	1329.541138	8104.294922	2559.284912	18.151859
351.226074	1331.283325	8127.136230	2562.124023	18.111645
351.595001	1330.100464	8150.601563	2570.254150	18.182735
351.963867	1329.304565	8194.585938	2578.125977	18.190390
352.332764	1331.240234	8246.764648	2590.385742	18.207520
352.701538	1330.745605	8309.115234	2602.860352	18.229397
353.070343	1332.810303	8385.533203	2618.023438	18.222937
353.439056	1333.756714	8478.707031	2634.154053	18.200230
353.807770	1335.348267	8577.084961	2653.468506	18.201714
354.176453	1337.864746	8670.364258	2670.739502	18.177631
354.545105	1340.381226	8772.077148	2695.258789	18.231070
354.913666	1344.833374	8899.576172	2724.058105	18.256409
355.282227	1346.661621	9039.055664	2752.340820	18.273624
355.650757	1349.651245	9191.590820	2788.238037	18.344784
356.019226	1352.554688	9350.427734	2821.768799	18.370060
356.387695	1353.350586	9525.352539	2856.375244	18.392368
356.756104	1359.179199	9727.140625	2900.574219	18.420198
357.124451	1362.641968	9968.611328	2948.300537	18.425100
357.492828	1364.685181	10213.868164	3000.457764	18.485014
357.861084	1369.115845	10435.530273	3046.118896	18.496872
358.229401	1372.191528	10625.790039	3086.963135	18.530863
358.597595	1372.944458	10758.193359	3115.697754	18.569069
358.965759	1374.062866	10865.517578	3140.023438	18.605793
359.333923	1377.073975	10958.734375	3160.305420	18.610882
359.702057	1379.246216	11091.374023	3181.684570	18.558636
360.070129	1382.429565	11249.199219	3214.247559	18.565529
360.438141	1384.451172	11443.826172	3255.779541	18.602829
360.806122	1385.612671	11654.196289	3301.484375	18.657604
361.174133	1389.699219	11906.572266	3357.899902	18.714695
361.542053	1394.022339	12192.563477	3417.649170	18.739817
361.909912	1397.442139	12476.599609	3482.668213	18.821161
362.277771	1399.184204	12736.912109	3539.363525	18.876616
362.645599	1402.862061	12921.149414	3579.626465	18.898335
363.013367	1404.152588	13021.571289	3600.381836	18.904623
363.381134	1404.346191	13047.337891	3611.738037	18.958973
363.748810	1400.732788	12986.578125	3604.252930	19.019070
364.116455	1398.990601	12855.375977	3582.680664	19.060898
364.484100	1396.818237	12650.535156	3543.148682	19.072193
364.851715	1394.904053	12370.671875	3482.044434	19.015894
365.219238	1388.322510	11973.160156	3407.561768	19.076714
365.586761	1382.493896	11498.027344	3313.228027	19.086824
365.954224	1378.321289	11039.109375	3215.710693	19.019043
366.321686	1372.342041	10633.854492	3137.098389	19.054731
366.689117	1367.481323	10359.626953	3081.586182	19.062246
367.056458	1363.287231	10173.711914	3044.678223	19.084108
367.423737	1361.437500	10042.621094	3017.298584	19.074141
367.791077	1363.050659	9931.187500	2998.350098	19.085823
368.158295	1360.985840	9845.670898	2981.358643	19.097618
368.525543	1359.157593	9765.295898	2965.206055	19.105661
368.892700	1357.910156	9695.201172	2958.495605	19.197908
369.259827	1353.995728	9637.989258	2943.655029	19.189529
369.626953	1353.866699	9598.737305	2936.277588	19.192669
369.994019	1351.758911	9565.443359	2937.310059	19.303774
370.361053	1352.275146	9548.214844	2931.954590	19.273928
370.728027	1352.189087	9533.718750	2929.846924	19.283165
371.094971	1351.780396	9534.988281	2934.255859	19.338081
371.461914	1352.769775	9558.130859	2941.762451	19.365297
371.828796	1351.737427	9594.414063	2953.312256	19.430275
372.195618	1350.339355	9626.719727	2959.162354	19.438726
372.562408	1351.974121	9658.831055	2971.852051	19.500490
372.929199	1351.586792	9693.179688	2979.982178	19.521397
373.295898	1355.501343	9733.291992	2993.166504	19.547697
373.662598	1356.060547	9780.587891	3008.093018	19.609795
374.029236	1356.576660	9817.689453	3016.954590	19.623634
374.395844	1356.877808	9856.899414	3027.687256	19.656532
374.762421	1355.823853	9897.225586	3041.387695	19.734043
375.128967	1357.114380	9936.629883	3054.012695	19.778486
375.495483	1354.533447	9986.249023	3072.746338	19.905809
375.861908	1355.931519	10070.731445	3093.221924	19.934944
376.228333	1357.974731	10203.887695	3132.753662	20.063265
376.594727	1358.942505	10389.137695	3180.566162	20.172583
376.961090	1361.545044	10614.305664	3235.949219	20.257782
377.327393	1363.480713	10855.839844	3294.946045	20.347580
377.693665	1365.072388	11066.941406	3346.457764	20.422718
378.059906	1364.427246	11233.047852	3390.635254	20.531824
378.426086	1365.932739	11330.974609	3428.446289	20.697491
378.792267	1369.825684	11394.444336	3451.158447	20.762213
379.158386	1371.030151	11416.447266	3465.999268	20.854975
379.524445	1369.976318	11407.844727	3473.096680	20.951862
379.890503	1369.309448	11373.172852	3474.516602	21.043940
380.256531	1369.072998	11302.153320	3468.536865	21.136082
380.622467	1364.900513	11182.784180	3452.685791	21.265123
380.988403	1360.878418	11019.000977	3431.027344	21.434278
381.354279	1356.146606	10836.203125	3405.798584	21.620670
381.720154	1352.726807	10673.344727	3384.634277	21.800137
382.085968	1351.909424	10543.047852	3372.568604	21.984861
382.451752	1349.995239	10486.180664	3370.503662	22.115448
382.817474	1345.026855	10469.597656	3381.967285	22.323687
383.183197	1343.693359	10503.063477	3408.874023	22.547192
383.548859	1345.500000	10561.652344	3440.749023	22.734531
383.914490	1344.467651	10627.725586	3476.215576	22.963362
384.280060	1345.672119	10690.206055	3511.940430	23.182198
384.645599	1349.844727	10754.623047	3546.568115	23.357525
385.011108	1351.522339	10825.126953	3581.777100	23.541777
385.376617	1353.823730	10908.878906	3620.986572	23.727367
385.742035	1354.684082	11003.621094	3662.819580	23.921137
386.107452	1356.727417	11107.333984	3708.696289	24.121256
386.472778	1357.028442	11198.656250	3756.702148	24.382895
386.838135	1359.932007	11293.549805	3810.192383	24.666342
387.203430	1361.437622	11367.687500	3853.939941	24.909456
387.568634	1361.286987	11435.739258	3895.041504	25.150295
387.933838	1362.233276	11474.819336	3936.509277	25.456158
388.299042	1361.329956	11511.188477	3975.288330	25.753645
388.664124	1358.791992	11539.451172	4014.970459	26.090437
389.029236	1358.705933	11556.485352	4052.760254	26.418047
389.394318	1358.598511	11564.163086	4087.517090	26.739515
389.759308	1359.050049	11561.776367	4125.027344	27.110178
390.124298	1359.931885	11585.113281	4164.859863	27.431572
390.489227	1360.405151	11632.730469	4217.684082	27.815308
390.854126	1363.179688	11712.761719	4279.218262	28.175423
391.218964	1363.287231	11838.283203	4356.152832	28.571522
391.583771	1363.588379	11981.677734	4440.335449	28.976465
391.948578	1364.190552	12133.137695	4526.410645	29.364246
392.313354	1365.201538	12250.250000	4603.021973	29.745575
392.678040	1366.061890	12350.002930	4671.847656	30.096535
393.042694	1366.363037	12448.102539	4745.232422	30.490425
393.407349	1366.793091	12559.469727	4826.705078	30.912285
393.771942	1366.276855	12693.099609	4913.426270	31.316368
394.136505	1365.739136	12809.715820	5002.404785	31.777988
394.501007	1365.158325	12885.081055	5074.736328	32.201416
394.865479	1362.362427	12878.089844	5118.849609	32.620495
395.229919	1360.469604	12786.056641	5137.259766	33.055546
395.594360	1360.104004	12648.211914	5141.433105	33.498344
395.958710	1358.168213	12487.438477	5135.432129	33.939907
396.323029	1359.523315	12344.819336	5135.819336	34.375916
396.687286	1358.146729	12222.093750	5142.422363	34.833340
397.051544	1360.039551	12111.457031	5152.617188	35.275139
397.415771	1359.179199	11980.452148	5150.853516	35.698868
397.779938	1358.318726	11827.401367	5148.938965	36.207756
398.144043	1355.673340	11671.833984	5136.507324	36.649624
398.508148	1356.469116	11518.610352	5121.516113	37.049740
398.872192	1356.189575	11394.616211	5123.903809	37.532917
399.236237	1355.350830	11314.026367	5135.346191	37.956806
399.600189	1356.189575	11257.115234	5158.209473	38.400650
399.964111	1356.856323	11216.551758	5187.437988	38.850910
400.328003	1354.425903	11190.957031	5222.281738	39.321342
400.691925	1356.275635	11172.675781	5261.663086	39.784313
401.055695	1353.866699	11166.674805	5300.937012	40.223656
401.419495	1353.544067	11164.954102	5340.833984	40.639317
401.783234	1353.888184	11182.396484	5390.022949	41.065590
402.146942	1355.823853	11181.772461	5435.662598	41.521069
402.510620	1354.533325	11216.336914	5497.691895	42.012180
402.874237	1354.339844	11263.202148	5562.603516	42.469696
403.237823	1355.866943	11339.016602	5639.731445	42.910950
403.601379	1355.888428	11444.148438	5732.774902	43.385944
403.964874	1355.372192	11595.048828	5847.004395	43.864983
404.328369	1356.146484	11759.886719	5966.954590	44.318756
404.691772	1357.630615	11933.800781	6089.163574	44.737682
405.055176	1357.501465	12084.485352	6205.629395	45.195629
405.418549	1358.426392	12229.471680	6322.611328	45.664288
405.781860	1359.200684	12337.485352	6418.601563	46.085529
406.145142	1360.426636	12448.811523	6516.484375	46.499626
406.508362	1362.254761	12518.819336	6588.815918	46.847404
406.871552	1361.136353	12561.362305	6651.017578	47.230133
407.234741	1361.867554	12562.030273	6704.529785	47.701645
407.597870	1360.792236	12520.647461	6730.790527	48.118885
407.960938	1362.340820	12456.339844	6750.792480	48.570869
408.323975	1362.663574	12370.886719	6751.094238	48.949142
408.686981	1360.727783	12293.264648	6761.031250	49.396618
409.049957	1361.416016	12241.559570	6783.507324	49.834740
409.412903	1363.007690	12215.985352	6821.038574	50.290630
409.775787	1364.405762	12229.450195	6877.411133	50.740749
410.138611	1363.459351	12273.197266	6944.687988	51.158226
410.501434	1364.298218	12328.452148	7022.568848	51.606995
410.864227	1366.771606	12373.488281	7095.609863	52.048569
411.226929	1367.717896	12423.409180	7167.512207	52.459808
411.589630	1369.524536	12473.394531	7235.971680	52.832455
411.952271	1370.793457	12497.547852	7281.461426	53.121223
412.314911	1371.116089	12522.303711	7334.651367	53.478924
412.677490	1370.599976	12536.693359	7381.688965	53.833408
413.040009	1373.675659	12560.458984	7415.843750	54.011665
413.402496	1372.557129	12553.318359	7434.985840	54.221966
413.764984	1368.427612	12534.865234	7445.674805	54.424225
414.127380	1367.889893	12502.602539	7452.105957	54.641872
414.489777	1366.900635	12490.407227	7468.710449	54.855087
414.852112	1367.459839	12512.194336	7500.154785	55.027733
415.214386	1366.276855	12548.994141	7532.502930	55.140678
415.576660	1366.018799	12629.650391	7589.908203	55.256508
415.938904	1364.233643	12746.977539	7665.874512	55.361347
416.301086	1366.900635	12896.694336	7757.520020	55.427002
416.663208	1370.793579	13069.619141	7840.863770	55.305298
417.025299	1371.159180	13253.083984	7952.017578	55.385456
417.387390	1373.374512	13469.753906	8077.237793	55.420414
417.749420	1380.472168	13732.582031	8226.051758	55.420330
418.111389	1384.580200	14027.824219	8395.062500	55.448444
418.473328	1387.720337	14356.853516	8585.709961	55.500935
418.835266	1391.333740	14718.684570	8793.863281	55.543892
419.197144	1397.441895	15121.508789	9029.053711	55.607513
419.558960	1401.292114	15548.528320	9287.838867	55.746201
419.920746	1408.045532	16017.491211	9581.767578	55.948204
420.282471	1412.325562	16561.236328	9913.829102	56.119572
420.644226	1418.304810	17156.554688	10298.157227	56.422108
421.005920	1422.219238	17755.876953	10682.441406	56.694115
421.367523	1427.273682	18320.054688	11058.079102	57.011368
421.729126	1429.531860	18822.029297	11404.982422	57.354900
422.090668	1432.177490	19260.212891	11723.409180	57.724991
422.452179	1434.156128	19616.773438	12003.594727	58.129356
422.813660	1435.876831	19942.878906	12273.971680	58.562130
423.175110	1438.242676	20241.583984	12543.038086	59.057560
423.536469	1438.930908	20520.156250	12789.649414	59.486320
423.897858	1439.425659	20782.404297	13036.218750	59.953503
424.259155	1439.124512	20923.882813	13224.241211	60.483776
424.620453	1437.791016	20975.201172	13352.471680	60.983932
424.981689	1438.092163	20959.500000	13446.440430	61.513741
425.342865	1438.715942	20913.107422	13506.511719	61.967514
425.704041	1441.017334	20834.367188	13540.472656	62.389713
426.065186	1441.318359	20749.023438	13565.271484	62.793343
426.426239	1441.447388	20644.773438	13564.993164	63.132530
426.787262	1439.941895	20466.019531	13515.890625	63.470512
427.148254	1437.102783	20225.689453	13406.887695	63.707748
427.509216	1434.994995	19907.519531	13258.458984	64.005669
427.870178	1432.973145	19504.158203	13031.269531	64.181160
428.231049	1430.155762	19086.945313	12790.035156	64.337173
428.591858	1426.585327	18670.699219	12548.565430	64.497261
428.952698	1421.509399	18269.832031	12304.450195	64.593613
429.313446	1416.842163	17885.699219	12077.431641	64.731812
429.674164	1412.239380	17541.742188	11858.071289	64.762268
430.034851	1408.862793	17206.625000	11648.346680	64.816048
430.395477	1408.174561	16918.267578	11465.141602	64.841438
430.756104	1406.539917	16688.412109	11311.831055	64.817261
431.116699	1404.991333	16488.386719	11194.784180	64.904434
431.477203	1406.174316	16316.538086	11097.246094	64.995544
431.837646	1405.937744	16210.290039	11041.281250	65.084534
432.198090	1405.442993	16155.550781	11028.139648	65.238144
432.558502	1405.980713	16141.225586	11043.517578	65.404663
432.918884	1408.196045	16152.410156	11085.243164	65.632843
433.279205	1407.335693	16212.224609	11164.500977	65.905022
433.639465	1406.496948	16264.639648	11268.836914	66.376671
433.999756	1405.593628	16348.177734	11382.183594	66.766159
434.359924	1404.410645	16430.123047	11502.522461	67.205536
434.720093	1404.518188	16499.076172	11627.891602	67.728867
435.080200	1403.464355	16569.537109	11737.389648	68.138443
435.440277	1401.679077	16644.814453	11861.985352	68.623062
435.800354	1398.495972	16696.929688	11979.397461	69.163300
436.160370	1396.302124	16723.988281	12076.872070	69.681557
436.520325	1393.333984	16741.214844	12177.292969	70.263504
436.880249	1391.785278	16744.398438	12258.056641	70.777992
437.240112	1393.635010	16742.140625	12335.356445	71.288513
437.599976	1393.355347	16763.734375	12433.647461	71.828369
437.959808	1397.248413	16810.578125	12552.500977	72.374062
438.319519	1396.538574	16871.531250	12679.872070	72.913345
438.679260	1397.011841	16968.898438	12836.063477	73.459641
439.038940	1398.001221	17101.580078	13025.613281	74.044342
439.398590	1401.313354	17284.636719	13244.630859	74.564484
439.758179	1403.593384	17510.082031	13508.125000	75.153137
440.117767	1407.679810	17808.658203	13816.141602	75.656837
440.477295	1412.691284	18135.470703	14142.333984	76.121574
440.836792	1416.992798	18487.625000	14497.109375	76.623497
441.196198	1416.627075	18806.761719	14822.674805	77.089958
441.555603	1421.165405	19081.398438	15112.818359	77.528160
441.914978	1420.154419	19270.431641	15346.827148	78.019363
442.274323	1422.004272	19408.857422	15546.938477	78.529213
442.633575	1425.854004	19502.654297	15686.157227	78.887314
442.992859	1430.349365	19538.033203	15785.827148	79.278374
443.352051	1429.618042	19510.417969	15824.261719	79.612862
443.711182	1431.231201	19432.322266	15824.369141	79.957024
444.070313	1430.263306	19310.414063	15794.149414	80.334259
444.429382	1427.660767	19152.394531	15735.733398	80.723763
444.788452	1426.649902	19016.162109	15689.878906	81.089394
445.147430	1428.886719	18932.904297	15690.912109	81.478584
445.506409	1427.617676	18915.289063	15729.777344	81.784241
445.865295	1427.380981	18997.214844	15836.005859	82.007744
446.224182	1430.048096	19166.203125	16020.093750	82.261612
446.583038	1428.607056	19404.511719	16256.940430	82.490051
446.941833	1427.725220	19672.609375	16510.283203	82.667320
447.300598	1428.564087	19946.794922	16783.371094	82.917244
447.659302	1429.467529	20195.962891	17020.132813	83.077126
448.018005	1432.112915	20390.330078	17225.341797	83.305450
448.376648	1434.435913	20546.457031	17392.330078	83.496635
448.735229	1433.812256	20616.380859	17488.621094	83.694778
449.093781	1430.155762	20626.341797	17519.162109	83.813560
449.452301	1426.327271	20563.126953	17491.972656	83.951584
449.810791	1426.456299	20426.488281	17408.714844	84.117012
450.169220	1422.499023	20185.425781	17224.757813	84.220657
450.527618	1420.004028	19889.474609	16998.857422	84.349213
450.885956	1415.831421	19574.554688	16775.949219	84.588097
451.244263	1413.293457	19276.238281	16553.792969	84.759262
451.602539	1410.927612	19023.753906	16369.875977	84.932129
451.960785	1408.432617	18834.052734	16221.902344	85.009712
452.318970	1408.174561	18676.830078	16119.954102	85.193535
452.677124	1405.507568	18535.242188	16019.490234	85.313538
453.035248	1404.324585	18393.332031	15920.896484	85.446854
453.393311	1406.131226	18235.076172	15817.014648	85.631531
453.751312	1404.216919	18067.550781	15689.663086	85.729820
454.109314	1406.432251	17921.660156	15583.972656	85.845253
454.467285	1404.862183	17778.740234	15487.660156	86.007713
454.825195	1404.432129	17644.810547	15382.809570	86.071739
455.183044	1402.474854	17489.566406	15262.815430	86.158150
455.540894	1400.797363	17304.662109	15117.744141	86.249146
455.898651	1399.248535	17107.042969	14976.781250	86.438187
456.256378	1395.871948	16915.341797	14806.653320	86.412628
456.614105	1394.301758	16754.355469	14685.002930	86.527702
456.971771	1392.602661	16626.273438	14596.454102	86.675446
457.329407	1389.247437	16578.355469	14563.009766	86.731636
457.686981	1388.881836	16595.927734	14599.336914	86.870621
458.044525	1384.881348	16716.048828	14711.824219	86.927124
458.402008	1386.731079	16913.148438	14896.255859	87.009926
458.759460	1390.258301	17222.691406	15170.631836	87.038879
459.116913	1395.850464	17682.341797	15577.478516	87.076019
459.474274	1400.883301	18285.017578	16110.640625	87.121773
459.831635	1406.840942	18900.771484	16651.976563	87.145287
460.188904	1411.508301	19491.898438	17169.609375	87.155762
460.546173	1418.562866	19993.939453	17603.447266	87.130852
460.903381	1425.251831	20382.978516	17950.439453	87.168617
461.260559	1430.177246	20662.236328	18206.126953	87.229088
461.617706	1433.424927	20856.863281	18384.298828	87.270203
461.974762	1433.037842	20902.890625	18443.232422	87.366837
462.331848	1433.016357	20853.939453	18411.550781	87.423935
462.688843	1426.671509	20652.968750	18258.177734	87.544189
463.045837	1421.208374	20278.253906	17946.804688	87.636192
463.402740	1416.068115	19744.960938	17504.255859	87.775009
463.759613	1410.131836	19186.871094	17018.626953	87.802917
464.116486	1404.905396	18641.621094	16575.968750	88.015984
464.473267	1399.055176	18194.984375	16192.352539	88.076675
464.830048	1397.205444	17837.132813	15887.022461	88.137962
465.186737	1396.474243	17553.250000	15646.218750	88.196709
465.543457	1391.742432	17325.523438	15453.206055	88.249382
465.900085	1392.796265	17206.626953	15360.420898	88.325371
466.256683	1391.161621	17162.019531	15326.887695	88.363785
466.613251	1393.592041	17192.710938	15361.644531	88.410324
466.969757	1393.721069	17282.013672	15441.375000	88.415123
467.326233	1393.893066	17380.392578	15528.461914	88.415649
467.682678	1394.430908	17445.085938	15600.535156	88.507942
468.039093	1393.979248	17487.242188	15633.206055	88.479424
468.395416	1392.366089	17481.046875	15647.959961	88.606354
468.751740	1390.365723	17475.798828	15644.993164	88.618233
469.108032	1387.333130	17453.904297	15633.765625	88.671272
469.464233	1386.924561	17425.257813	15615.418945	88.715546
469.820435	1387.462158	17371.595703	15565.778320	88.702438
470.176575	1388.903198	17264.826172	15470.089844	88.695229
470.532715	1390.709839	17116.185547	15349.063477	88.762680
470.888763	1389.871094	16959.392578	15226.553711	88.870316
471.244751	1389.957153	16821.849609	15105.204102	88.875992
471.600769	1388.838745	16735.945313	15025.368164	88.854073
471.956696	1391.419800	16686.154297	14987.191406	88.891846
472.312592	1395.119141	16715.039063	15013.410156	88.892700
472.668457	1394.172852	16788.876953	15080.515625	88.902931
473.024292	1395.613892	16909.494141	15181.947266	88.864510
473.380035	1399.872437	16996.687500	15264.774414	88.895729
473.735779	1402.711548	17086.396484	15340.288086	88.866722
474.091492	1400.130615	17172.923828	15431.655273	88.960304
474.447113	1398.689453	17280.419922	15520.312500	88.917404
474.802765	1400.238159	17379.853516	15599.846680	88.860764
475.158295	1401.227417	17497.501953	15699.902344	88.832199
475.513824	1401.205811	17608.527344	15797.549805	88.826180
475.869324	1400.495972	17745.513672	15912.121094	88.783173
476.224762	1399.420532	17873.398438	16023.727539	88.772163
476.580170	1401.743408	17999.607422	16137.053711	88.778358
476.935516	1402.668335	18130.783203	16254.250977	88.782166
477.290863	1401.721924	18340.294922	16428.357422	88.712532
477.646118	1399.807739	18551.289063	16615.865234	88.715706
478.001373	1403.163208	18806.695313	16833.804688	88.663857
478.356537	1404.561279	19087.570313	17064.263672	88.557899
478.711700	1408.927368	19371.455078	17307.779297	88.511215
479.066833	1412.863281	19646.175781	17546.882813	88.486496
479.421875	1416.003418	19939.740234	17802.615234	88.462776
479.776917	1418.713501	20251.736328	18074.519531	88.439369
480.131897	1422.756958	20583.023438	18356.660156	88.380310
480.486847	1425.187378	20960.789063	18669.794922	88.272720
480.841766	1427.617798	21395.488281	19043.046875	88.218864
481.196594	1431.403198	21904.089844	19483.382813	88.175919
481.551453	1438.608521	22567.785156	20045.580078	88.062927
481.906219	1446.028809	23387.111328	20761.992188	88.035599
482.260986	1455.320190	24480.345703	21730.695313	88.057991
482.615662	1465.364380	26038.882813	23100.435547	88.042221
482.970306	1480.312500	28242.232422	25055.707031	88.093063
483.324951	1502.057129	31073.486328	27650.695313	88.425346
483.679504	1528.103394	34178.042969	30574.025391	88.961639
484.034027	1552.192261	37240.316406	33457.910156	89.401497
484.388519	1577.485840	40007.261719	36025.652344	89.639259
484.742981	1599.682007	42335.035156	38113.238281	89.636040
485.097351	1615.727051	44198.640625	39756.714844	89.568764
485.451721	1625.018677	45581.304688	40971.230469	89.512138
485.806030	1633.750732	46583.941406	41822.882813	89.408150
486.160309	1640.482788	47246.304688	42385.511719	89.341728
486.514557	1645.494263	47545.160156	42632.402344	89.296745
486.868744	1646.569580	47432.246094	42494.171875	89.214806
487.222931	1643.171387	46820.234375	41812.515625	88.915352
487.577026	1636.890991	45926.082031	40815.421875	88.460709
487.931122	1628.933105	44990.953125	39779.015625	87.980408
488.285126	1619.964111	44104.308594	38827.480469	87.579361
488.639099	1612.952637	43301.371094	38014.777344	87.318794
488.993042	1607.553955	42603.714844	37353.078125	87.192368
489.346954	1604.542969	42024.195313	36804.648438	87.086609
489.700836	1601.617676	41487.574219	36305.015625	87.006561
490.054626	1597.423828	40928.410156	35777.789063	86.904427
490.408417	1590.670044	40378.378906	35244.691406	86.764656
490.762146	1584.217896	39816.289063	34698.941406	86.615036
491.115814	1583.056274	39386.949219	34293.019531	86.525375
491.469513	1578.711670	39061.570313	33943.625000	86.345901
491.823090	1576.281250	38661.800781	33520.734375	86.137268
492.176666	1572.173340	38210.628906	33073.535156	85.978951
492.530182	1567.678101	37734.078125	32629.054688	85.884628
492.883698	1562.967896	37229.519531	32138.519531	85.726120
493.237091	1558.687622	36680.738281	31631.468750	85.623650
493.590515	1550.321045	36093.078125	31077.099609	85.478928
493.943878	1543.266479	35411.636719	30450.054688	85.350395
494.297150	1537.846558	34507.351563	29635.626953	85.223549
494.650452	1529.049683	33330.281250	28598.142578	85.119637
495.003662	1512.875488	31807.943359	27231.029297	84.892212
495.356873	1500.314941	30131.712891	25740.843750	84.664146
495.710022	1487.066040	28584.187500	24381.193359	84.489151
496.063110	1476.828247	27306.437500	23250.365234	84.296814
496.416168	1468.074341	26367.935547	22406.283203	84.089661
496.769165	1463.084473	25714.408203	21811.542969	83.906586
497.122162	1457.449463	25311.005859	21411.814453	83.653625
497.475098	1456.632202	25029.080078	21141.201172	83.506683
497.828003	1456.223511	24893.019531	20988.601563	83.340652
498.180847	1454.029785	24823.205078	20888.482422	83.162766
498.533661	1454.416870	24769.218750	20795.373047	82.955696
498.886444	1453.621094	24713.750000	20717.126953	82.817711
499.239136	1451.964966	24632.236328	20619.328125	82.688263
499.591827	1449.900269	24482.648438	20454.298828	82.510338
499.944427	1449.039795	24238.423828	20218.398438	82.360100
500.297089	1446.007202	23928.687500	19923.759766	82.186607
500.649628	1444.630615	23578.921875	19593.654297	81.995049
501.002136	1440.371948	23203.154297	19243.201172	81.804016
501.354584	1437.532837	22852.552734	18922.322266	81.647316
501.707001	1434.156250	22491.947266	18586.775391	81.454979
502.059387	1432.005371	22181.478516	18303.794922	81.311890
502.411682	1429.747070	21899.015625	18041.568359	81.154922
502.764038	1429.531982	21673.394531	17825.865234	80.994095
503.116302	1429.575073	21490.425781	17632.808594	80.770416
503.468475	1428.370605	21362.968750	17486.445313	80.553795
503.820709	1427.445679	21297.326172	17395.166016	80.361435
504.172852	1427.768433	21260.976563	17318.835938	80.123528
504.524902	1425.101440	21239.255859	17266.935547	79.952110
504.876953	1428.177124	21248.654297	17234.050781	79.745178
505.228912	1427.918945	21261.386719	17202.671875	79.536026
505.580872	1427.553345	21280.679688	17178.925781	79.339500
505.932770	1426.391968	21267.861328	17133.650391	79.163788
506.284698	1425.209106	21266.160156	17077.191406	78.887260
506.636505	1425.660645	21272.806641	17031.810547	78.631706
506.988342	1423.789551	21269.794922	16991.740234	78.443748
507.340088	1424.671387	21276.398438	16959.369141	78.253632
507.691772	1424.456177	21279.777344	16907.943359	77.981552
508.043396	1423.681763	21298.380859	16891.189453	77.825119
508.395050	1425.337769	21345.074219	16874.046875	77.554787
508.746582	1426.262695	21429.212891	16896.244141	77.338501
509.098114	1426.929565	21563.166016	16936.312500	77.022255
509.449646	1429.446045	21709.593750	16980.556641	76.681442
509.801086	1431.080688	21892.970703	17054.220703	76.352379
510.152557	1433.403442	22072.626953	17139.693359	76.099236
510.503906	1433.640137	22255.166016	17212.111328	75.779610
510.855194	1437.210449	22443.490234	17283.794922	75.437370
511.206482	1438.801880	22627.857422	17361.160156	75.144257
511.557709	1440.243042	22821.171875	17443.710938	74.849258
511.908844	1445.340332	23011.128906	17516.921875	74.523506
512.260010	1446.136230	23173.730469	17585.275391	74.279457
512.611206	1446.588013	23288.087891	17594.050781	73.930191
512.962219	1449.663574	23368.722656	17589.320313	73.632980
513.313232	1450.394897	23425.783203	17575.318359	73.377197
513.664246	1450.932617	23455.679688	17529.076172	73.066711
514.015137	1450.760620	23457.228516	17455.882813	72.729172
514.366028	1453.728638	23439.097656	17384.218750	72.459511
514.716919	1452.115356	23387.007813	17293.906250	72.221878
515.067688	1450.416138	23307.533203	17167.072266	71.906357
515.418396	1449.555786	23222.382813	17041.962891	71.614075
515.769104	1448.136353	23144.609375	16916.054688	71.292320
516.119812	1450.093506	23090.453125	16804.425781	70.952293
516.470459	1450.050537	23097.982422	16749.171875	70.672440
516.821106	1450.824829	23162.376953	16736.503906	70.403435
517.171631	1453.126221	23358.894531	16793.308594	70.028053
517.522095	1457.212769	23642.285156	16916.441406	69.683022
517.872559	1461.062622	24070.144531	17143.654297	69.364128
518.222961	1464.977173	24575.886719	17411.341797	68.999290
518.573364	1469.493896	25124.449219	17708.386719	68.649010
518.923645	1476.312012	25645.048828	17986.335938	68.311485
519.273987	1481.818115	26105.107422	18217.138672	67.965416
519.624207	1483.925903	26452.355469	18366.275391	67.614784
519.974487	1483.646362	26733.636719	18484.677734	67.330841
520.324646	1484.850708	26895.742188	18517.261719	67.027992
520.674744	1483.000977	26977.429688	18473.921875	66.645622
521.024780	1481.710449	26911.783203	18347.669922	66.322891
521.374878	1480.419922	26728.537109	18139.039063	65.979652
521.724792	1477.086060	26432.779297	17851.826172	65.615250
522.074707	1472.505005	26056.068359	17516.041016	65.261230
522.424744	1468.870117	25661.351563	17157.072266	64.847435
522.774536	1464.095459	25332.281250	16846.388672	64.446846
523.124329	1462.159668	25042.888672	16577.773438	64.101555
523.474182	1458.589478	24903.343750	16400.117188	63.730793
523.823914	1461.815674	24869.898438	16273.413086	63.275570
524.173523	1463.321167	24982.623047	16241.496094	62.834240
524.523132	1467.084961	25229.251953	16308.708984	62.459049
524.872803	1469.020630	25632.398438	16471.201172	62.086441
525.222290	1474.118042	26245.767578	16759.238281	61.704086
525.571777	1480.118896	26965.470703	17097.472656	61.279724
525.921326	1488.958740	27765.914063	17485.111328	60.875214
526.270752	1495.389526	28603.373047	17902.197266	60.523899
526.620178	1505.949951	29496.150391	18344.767578	60.159691
526.969482	1513.800415	30569.894531	18879.156250	59.764935
527.318787	1527.286011	31845.470703	19535.451172	59.397243
527.668030	1539.803589	33489.312500	20431.175781	59.128834
528.017212	1559.289917	35522.765625	21594.654297	58.990913
528.366394	1579.442871	37770.765625	22915.742188	58.954182
528.715515	1603.768677	39934.906250	24187.556641	58.917603
529.064636	1620.781616	41741.433594	25205.207031	58.783756
529.413635	1635.256348	43115.664063	25927.275391	58.562637
529.762695	1642.827271	44061.628906	26367.587891	58.287266
530.111633	1649.752686	44697.285156	26615.425781	57.995598
530.460510	1649.731201	44978.562500	26656.830078	57.714687
530.809387	1647.408325	44862.527344	26470.289063	57.440273
531.158142	1642.504639	44333.128906	26040.751953	57.151302
531.506958	1635.901611	43292.691406	25297.480469	56.801254
531.855652	1623.814087	41803.566406	24248.962891	56.309822
532.204407	1609.554199	40108.777344	23036.037109	55.654324
532.552979	1591.637939	38622.894531	21910.626953	54.869831
532.901611	1580.238647	37507.550781	21040.216797	54.164860
533.250183	1573.549683	36804.671875	20452.554688	53.586163
533.598755	1566.581299	36351.496094	20034.222656	53.090946
533.947205	1563.010864	35978.953125	19672.201172	52.618607
534.295593	1561.505371	35663.878906	19377.517578	52.242729
534.643982	1561.634399	35411.527344	19123.960938	51.882957
534.992249	1567.914795	35183.628906	18897.568359	51.552242
535.340576	1561.526855	34984.875000	18682.982422	51.226032
535.688843	1556.752075	34779.281250	18461.169922	50.882397
536.037048	1552.041748	34511.781250	18198.169922	50.504433
536.385315	1550.880371	34046.386719	17848.705078	50.154087
536.733398	1545.288208	33382.691406	17379.013672	49.733093
537.081421	1536.878540	32527.445313	16833.656250	49.359463
537.429443	1531.695190	31672.181641	16296.813477	48.987656
537.777466	1528.555054	30902.644531	15816.712891	48.642044
538.125427	1524.640625	30244.908203	15394.337891	48.292366
538.473267	1519.865723	29722.843750	15042.359375	47.947044
538.821167	1509.907471	29287.111328	14736.815430	47.617855
539.169006	1508.853638	28941.242188	14473.535156	47.260490
539.516846	1508.401978	28654.732422	14250.172852	46.937359
539.864502	1509.240723	28495.763672	14073.615234	46.557961
540.212219	1507.928833	28504.111328	13975.215820	46.181667
540.559875	1511.520630	28838.193359	14032.534180	45.819752
540.907410	1519.500122	29597.880859	14256.003906	45.360535
541.254944	1530.125000	30617.769531	14615.662109	44.986584
541.602478	1536.168823	31697.882813	14987.622070	44.597775
541.949951	1542.857910	32720.099609	15327.877930	44.215008
542.297363	1549.718872	33602.207031	15618.171875	43.891922
542.644714	1555.117310	34395.015625	15861.880859	43.565189
542.992126	1562.107544	35014.703125	16030.093750	43.249222
543.339355	1564.710083	35429.875000	16106.318359	42.939724
543.686646	1564.580933	35497.582031	16044.699219	42.672672
544.033813	1562.494873	35207.761719	15813.375977	42.356274
544.380920	1554.149536	34458.527344	15394.724609	42.063019
544.728027	1542.900757	33316.277344	14804.415039	41.737820
545.075134	1530.189575	31969.875000	14123.255859	41.370552
545.422180	1519.500000	30666.382813	13475.647461	41.020329
545.769165	1509.111694	29513.033203	12899.211914	40.673233
546.116150	1500.379395	28531.037109	12392.956055	40.297119
546.463013	1491.259888	27665.556641	11947.974609	39.950317
546.809875	1481.581543	26966.525391	11568.852539	39.581299
547.156677	1477.903564	26331.867188	11217.647461	39.187893
547.503418	1472.526611	25801.994141	10911.459961	38.796303
547.850098	1467.601318	25317.220703	10638.586914	38.453384
548.196777	1466.676270	24898.181641	10388.620117	38.076698
548.543396	1465.321411	24474.513672	10163.108398	37.801361
548.890015	1459.385132	24032.888672	9920.433594	37.482212
549.236633	1453.341309	23521.126953	9669.756836	37.232628
549.583069	1448.588013	22973.126953	9395.099609	36.918385
549.929504	1444.006836	22375.375000	9110.096680	36.624889
550.275879	1438.049072	21767.470703	8817.888672	36.301277
550.622253	1435.747925	21120.251953	8514.646484	35.961781
550.968567	1428.047974	20528.802734	8240.569336	35.666245
551.314819	1424.520630	20002.304688	7994.925293	35.367001
551.661072	1421.982788	19598.126953	7790.857910	35.039745
552.007263	1416.218628	19304.757813	7628.772949	34.729244
552.353394	1411.852417	19120.906250	7494.821777	34.349487
552.699524	1410.153442	19001.708984	7395.776855	34.025551
553.045593	1407.249756	18950.607422	7312.691895	33.661983
553.391602	1407.701294	18928.796875	7250.554199	33.347530
553.737549	1407.895020	18905.654297	7192.009766	33.056316
554.083435	1408.690796	18871.564453	7131.894043	32.773548
554.429321	1405.744263	18837.603516	7067.801270	32.481087
554.775146	1404.711792	18766.435547	6990.801758	32.174740
555.120972	1401.593018	18699.888672	6917.330078	31.886017
555.466675	1400.001465	18572.431641	6834.523926	31.646788
555.812439	1400.861816	18412.195313	6739.394043	31.382208
556.158081	1400.431641	18199.246094	6632.843262	31.147505
556.503662	1400.495972	17978.443359	6521.754395	30.891993
556.849182	1400.818848	17754.201172	6407.245605	30.614014
557.194702	1397.764648	17537.119141	6294.134766	30.338079
557.540161	1393.140381	17350.515625	6184.078125	30.023344
557.885620	1390.774414	17176.365234	6088.861328	29.761869
558.231018	1387.849243	17019.054688	6008.830078	29.562538
558.576355	1386.472778	16895.041016	5932.929199	29.315771
558.921692	1386.365356	16771.951172	5865.006348	29.109331
559.266968	1382.923950	16670.603516	5798.847656	28.885508
559.612183	1381.353882	16585.216797	5739.312988	28.663498
559.957336	1378.815918	16526.220703	5682.918457	28.414785
560.302429	1376.493164	16485.611328	5630.547363	28.155542
560.647522	1377.073975	16465.630859	5592.563965	27.938326
560.992554	1376.149170	16452.361328	5557.376953	27.733940
561.337524	1375.396362	16454.466797	5536.750488	27.596888
561.682434	1376.772827	16478.041016	5510.403320	27.372736
562.027344	1379.590332	16486.343750	5477.819336	27.128456
562.372253	1380.256958	16492.281250	5455.171387	26.964716
562.717102	1381.052856	16496.431641	5425.231934	26.755394
563.061829	1383.289551	16506.345703	5397.980957	26.546825
563.406494	1382.923950	16506.863281	5371.891113	26.375187
563.751160	1383.010132	16487.873047	5345.199707	26.231216
564.095825	1383.805908	16480.019531	5321.605469	26.084682
564.440369	1381.052856	16470.945313	5297.366211	25.953222
564.784973	1381.547485	16486.128906	5281.342773	25.818626
565.129456	1383.504761	16545.621094	5267.405762	25.615824
565.473877	1381.934692	16631.501953	5265.555664	25.467091
565.818298	1379.418335	16780.574219	5281.987793	25.339457
566.162659	1381.225098	16958.230469	5303.474609	25.179739
566.507019	1383.117676	17142.789063	5330.983887	25.050434
566.851196	1382.623047	17304.982422	5352.556152	24.933071
567.195435	1384.924316	17465.066406	5367.181641	24.765062
567.539612	1386.128784	17583.642578	5372.320801	24.609900
567.883789	1387.870972	17669.867188	5369.891113	24.456583
568.227844	1390.107666	17720.433594	5361.718262	24.320461
568.571960	1392.796143	17746.607422	5341.909180	24.147966
568.915955	1391.957397	17702.988281	5316.508301	24.060715
569.259888	1392.301514	17641.583984	5286.375488	23.964590
569.603821	1394.624390	17538.859375	5242.456055	23.834089
569.947632	1393.140259	17414.093750	5195.375000	23.732887
570.291504	1390.537842	17301.820313	5145.927734	23.602057
570.635193	1388.817261	17230.070313	5116.117676	23.529076
570.979004	1387.720337	17189.140625	5092.738281	23.447374
571.322632	1388.387207	17251.921875	5094.781738	23.364241
571.666321	1386.881348	17348.537109	5105.686035	23.298363
572.009949	1388.752686	17484.488281	5123.322754	23.202232
572.353455	1388.688110	17614.806641	5140.980469	23.125017
572.696960	1392.903809	17731.423828	5154.208008	23.021084
573.040405	1395.269653	17836.578125	5163.714355	22.920589
573.383850	1396.302246	17900.994141	5165.220215	22.835434
573.727173	1397.678589	17957.580078	5163.392090	22.739948
574.070557	1398.667969	17983.669922	5160.316895	22.681028
574.413879	1400.474731	18000.898438	5146.530273	22.566025
574.757019	1398.560425	18007.070313	5136.787109	22.507898
575.100281	1398.409912	17948.935547	5108.913086	22.419247
575.443420	1397.850586	17855.351563	5075.962402	22.349154
575.786499	1394.968628	17718.580078	5029.397461	22.264856
576.129517	1395.011597	17557.830078	4984.445313	22.207968
576.472534	1395.269653	17409.726563	4937.062988	22.116226
576.815491	1393.376953	17219.445313	4888.562500	22.084990
577.158447	1392.839355	17037.873047	4839.825195	22.032461
577.501343	1389.634644	16846.281250	4789.776367	21.997925
577.844116	1385.655518	16634.621094	4734.650879	21.962114
578.187012	1383.182129	16399.818359	4676.385742	21.930367
578.529724	1380.321533	16122.384766	4608.871582	21.900259
578.872375	1377.310425	15831.832031	4538.691406	21.871225
579.215027	1374.062622	15551.066406	4474.231934	21.867592
579.557617	1371.159058	15267.546875	4410.438965	21.871006
579.900146	1368.104980	15013.774414	4348.882813	21.844130
580.242676	1364.362549	14763.677734	4290.660645	21.839161
580.585144	1363.910889	14546.577148	4234.868652	21.778278
580.927612	1360.620117	14349.434570	4188.884766	21.774618
581.269958	1358.254272	14169.499023	4143.158691	21.737967
581.612305	1359.136108	14031.352539	4104.143555	21.661619
581.954590	1358.017700	13892.000977	4066.525146	21.609310
582.296814	1359.329712	13789.235352	4037.124023	21.543159
582.639038	1358.168335	13691.159180	4012.668945	21.523575
582.981140	1360.641724	13596.156250	3984.321289	21.443150
583.323242	1364.212036	13520.319336	3960.039063	21.354099
583.665283	1361.824707	13440.610352	3942.252197	21.363302
584.007324	1359.243652	13378.174805	3923.884277	21.338341
584.349304	1357.071411	13312.359375	3902.548340	21.291641
584.691284	1355.264771	13251.771484	3878.459229	21.209539
585.033142	1354.447388	13186.343750	3861.790527	21.191389
585.374939	1354.253906	13123.582031	3846.906494	21.179226
585.716736	1352.533203	13080.458984	3836.862305	21.183022
586.058411	1353.329102	13023.613281	3821.441162	21.148689
586.400085	1354.124878	12978.125000	3806.729736	21.099493
586.741760	1351.285889	12935.324219	3793.739014	21.084644
587.083374	1348.253174	12922.503906	3788.211182	21.080915
587.424988	1348.167114	12903.749023	3778.532715	21.031963
587.766541	1346.360352	12895.706055	3772.682617	21.008308
588.107971	1346.166748	12910.008789	3772.252197	20.979925
588.449341	1346.747559	12925.581055	3777.672607	20.994558
588.790710	1346.941162	12962.487305	3783.092773	20.973200
589.132080	1345.693604	12993.931641	3786.167969	20.951447
589.473267	1348.984375	13041.616211	3788.878174	20.866934
589.814514	1347.392700	13090.913086	3796.125977	20.851784
590.155762	1346.424927	13151.329102	3808.020264	20.852310
590.496948	1348.704834	13191.547852	3812.579834	20.804760
590.838013	1348.102661	13204.711914	3810.751709	20.770264
591.179077	1349.005981	13229.359375	3811.267822	20.725492
591.520081	1350.704956	13229.360352	3806.793945	20.676489
591.861023	1352.339600	13208.475586	3797.846924	20.626513
592.201965	1351.930908	13188.343750	3787.200195	20.574387
592.542847	1353.264526	13146.706055	3775.177246	20.536097
592.883606	1353.716187	13099.450195	3765.649170	20.534546
593.224365	1352.468628	13047.250000	3752.937744	20.525986
593.565125	1352.511597	13016.602539	3739.387695	20.463455
593.905823	1353.823730	12999.008789	3728.440430	20.391403
594.246521	1353.350464	12995.803711	3725.558350	20.375500
594.587097	1354.942139	13030.777344	3733.042969	20.367716
594.927612	1354.017334	13055.768555	3732.763428	20.328121
595.268127	1354.985229	13121.110352	3745.217041	20.314522
595.608582	1350.597534	13227.984375	3761.885986	20.301508
595.948975	1350.877075	13347.805664	3789.502197	20.327078
596.289307	1352.597656	13530.000000	3825.334473	20.305946
596.629700	1353.845093	13753.403320	3865.339111	20.254705
596.969971	1355.157104	13974.957031	3904.914063	20.204416
597.310242	1355.028198	14161.775391	3945.736816	20.229246
597.650391	1355.286255	14280.758789	3968.448975	20.217154
597.990540	1353.350464	14364.662109	3982.214111	20.204449
598.330627	1354.425903	14370.918945	3979.159912	20.164679
598.670654	1356.727295	14358.681641	3974.492432	20.133629
599.010620	1355.845459	14279.640625	3955.758789	20.117260
599.350525	1358.834961	14147.237305	3926.486572	20.077971
599.690491	1358.985474	13981.238281	3888.761719	20.042194
600.030334	1356.426147	13756.113281	3836.840820	20.003847
600.370178	1354.576416	13481.950195	3778.467773	19.986942
600.710022	1352.210449	13190.322266	3720.740479	20.007668
601.049683	1351.221191	12926.418945	3661.077393	19.955221
601.389343	1349.005859	12712.930664	3616.985840	19.957718
601.728943	1349.220947	12547.619141	3574.980469	19.875694
602.068542	1346.145386	12447.219727	3552.010254	19.870733
602.408081	1343.714966	12407.515625	3541.492188	19.864578
602.747498	1347.392822	12457.952148	3545.191650	19.781172
603.087036	1349.758667	12558.715820	3564.742920	19.760843
603.426453	1349.027344	12710.046875	3589.132813	19.717468
603.765869	1350.661987	12902.652344	3623.201660	19.672277
604.105103	1350.833984	13132.744141	3666.239014	19.652205
604.444336	1352.103027	13408.628906	3715.105225	19.599363
604.783569	1354.791504	13683.350586	3767.843018	19.572861
605.122681	1358.039185	13923.790039	3813.827393	19.543505
605.461792	1360.362183	14122.050781	3859.875977	19.586073
605.800842	1361.910645	14273.315430	3888.180420	19.566189
606.139954	1362.641846	14346.141602	3901.859619	19.557266
606.478943	1359.931763	14330.636719	3899.472656	19.579052
606.817932	1356.813232	14249.227539	3879.018555	19.563484
607.156799	1358.340332	14120.008789	3850.219482	19.526281
607.495605	1357.071411	13942.028320	3814.386963	19.525816
607.834412	1356.512207	13730.906250	3768.381104	19.490803
608.173157	1356.963867	13487.928711	3714.825684	19.436722
608.511841	1357.523193	13275.150391	3668.347412	19.389969
608.850464	1356.813354	13123.109375	3635.869629	19.369360
609.189148	1357.222046	13038.905273	3611.608643	19.298475
609.527710	1357.178955	12987.802734	3599.972900	19.283522
609.866211	1356.619629	12966.853516	3593.627930	19.267555
610.204712	1356.576660	12970.832031	3587.864014	19.211626
610.543091	1358.921021	12985.652344	3591.799805	19.204700
610.881409	1359.200684	12981.887695	3593.434326	19.223038
611.219788	1358.555542	12962.636719	3588.982178	19.221054
611.558044	1359.222290	12924.590820	3578.550781	19.189434
611.896301	1357.071411	12848.300781	3562.118652	19.188959
612.234436	1355.092651	12720.778320	3536.309570	19.191248
612.572693	1350.468384	12538.434570	3497.465820	19.190241
612.910767	1346.295776	12311.265625	3452.019287	19.204100
613.248840	1345.951660	12067.795898	3399.475098	19.152708
613.586792	1344.962402	11823.615234	3350.479736	19.139076
613.924805	1343.112671	11590.983398	3307.592773	19.169641
614.262695	1339.284180	11367.793945	3263.114014	19.183607
614.600525	1335.563354	11181.536133	3223.926025	19.179037
614.938293	1333.627441	11017.816406	3192.546143	19.195398
615.276123	1329.906738	10869.152344	3167.833496	19.267002
615.613892	1329.584106	10751.783203	3149.186035	19.311859
615.951538	1328.035522	10640.694336	3127.549072	19.323305
616.289185	1328.014038	10566.943359	3111.503906	19.304075
616.626770	1327.411743	10496.353516	3096.297852	19.292152
616.964294	1326.013672	10445.938477	3086.318115	19.301743
617.301819	1323.604736	10407.267578	3075.262695	19.283607
617.639221	1323.153076	10378.189453	3070.014893	19.291605
617.976624	1321.325073	10362.853516	3062.573242	19.258339
618.313965	1324.164185	10346.486328	3056.808838	19.203976
618.651306	1327.497803	10337.819336	3050.356445	19.120945
618.988525	1329.605591	10326.570313	3043.560059	19.050364
619.325684	1329.433472	10320.224609	3040.161621	19.027559
619.662964	1331.111206	10312.611328	3041.323242	19.041496
620.000000	1331.605957	10289.296875	3038.247559	19.052248
620.337097	1329.842285	10270.563477	3038.118164	19.106691
620.674133	1327.670044	10244.667969	3036.806152	19.167170
621.011047	1330.035889	10211.373047	3033.730469	19.182861
621.347961	1329.648682	10182.379883	3025.621826	19.157625
621.684875	1331.390747	10146.871094	3020.159180	19.156851
622.021729	1329.863770	10114.371094	3016.093994	19.195499
622.358521	1329.132324	10068.881836	3009.039307	19.221453
622.695313	1327.325684	10045.352539	3008.394287	19.282671
623.031982	1326.551514	10015.541992	3003.232178	19.296612
623.368652	1324.529785	9991.561523	2993.338379	19.254673
623.705261	1323.712402	9977.149414	2988.649902	19.240187
624.041748	1326.443970	9965.019531	2983.208496	19.178679
624.378296	1330.057373	9964.589844	2977.229004	19.076559
624.714722	1329.777710	9987.903320	2976.175049	19.015631
625.051147	1331.756470	10010.014648	2977.960205	18.969288
625.387512	1333.520142	10059.138672	2987.681885	18.957531
625.723877	1334.358887	10114.349609	2995.446289	18.919012
626.060120	1332.380249	10206.467773	3011.921631	18.926355
626.396301	1335.004150	10316.202148	3031.622803	18.890783
626.732483	1338.079956	10427.527344	3055.238525	18.891783
627.068604	1340.488770	10542.659180	3077.779053	18.879137
627.404724	1345.156006	10649.726563	3098.104492	18.839649
627.740662	1346.575562	10744.706055	3114.579590	18.812294
628.076721	1345.392578	10811.510742	3130.086670	18.853495
628.412720	1344.360107	10847.579102	3140.991455	18.905504
628.748596	1344.058960	10864.636719	3145.895264	18.925703
629.084473	1344.790161	10857.860352	3144.841309	18.921873
629.420227	1344.058960	10822.523438	3138.754639	18.934456
629.755981	1344.381592	10759.699219	3128.043213	18.944254
630.091675	1345.285034	10655.600586	3105.847412	18.909803
630.427307	1343.714966	10541.219727	3081.328125	18.892223
630.762939	1340.768311	10419.979492	3056.378662	18.896029
631.098450	1338.208862	10297.727539	3029.687256	18.879122
631.434021	1338.208862	10185.499023	3008.609375	18.880363
631.769470	1335.197754	10085.313477	2985.918213	18.865128
632.104980	1333.240479	9990.163086	2965.700928	18.857283
632.440308	1331.627441	9907.851563	2949.247070	18.861675
632.775635	1330.315430	9827.433594	2932.212646	18.852242
633.110901	1330.401489	9767.102539	2919.200684	18.831995
633.446106	1330.788574	9724.925781	2911.801758	18.834732
633.781250	1328.100098	9693.135742	2906.940918	18.874289
634.116394	1329.304565	9672.036133	2902.187744	18.853336
634.451538	1330.186401	9660.164063	2903.628662	18.888914
634.786560	1329.261597	9636.849609	2900.187256	18.909529
635.121582	1326.723511	9609.641602	2893.799561	18.919373
635.456543	1329.820679	9574.928711	2888.013916	18.898396
635.791443	1334.122437	9539.719727	2878.034180	18.815348
636.126221	1333.455688	9498.402344	2870.334229	18.822886
636.461060	1330.294067	9459.751953	2859.042725	18.805050
636.795776	1328.336792	9411.875000	2849.192139	18.814228
637.130493	1327.261353	9340.318359	2831.146729	18.767935
637.465210	1329.089478	9269.083984	2812.757324	18.686007
637.799805	1327.562378	9190.750977	2797.120850	18.689091
638.134399	1325.196655	9101.235352	2777.290283	18.673950
638.468933	1324.400757	9013.999023	2760.879883	18.680809
638.803345	1324.099731	8930.870117	2744.275635	18.669893
639.137756	1322.357422	8856.818359	2727.499268	18.649534
639.472168	1320.937988	8790.487305	2716.745117	18.686630
639.806519	1319.582886	8721.060547	2703.990967	18.704483
640.140747	1319.797974	8648.619141	2691.881836	18.721754
640.474976	1320.142090	8578.417969	2678.890869	18.719994
640.809204	1321.066895	8510.150391	2667.685303	18.731434
641.143372	1321.023926	8444.959961	2655.662354	18.734566
641.477478	1320.658325	8379.188477	2641.918945	18.718636
641.811462	1321.798340	8318.385742	2630.648682	18.706982
642.145447	1322.206909	8273.305664	2620.281738	18.674383
642.479370	1321.647583	8229.859375	2615.184326	18.724625
642.813293	1321.346558	8179.572266	2608.258789	18.764507
643.147095	1318.873169	8133.115234	2600.364990	18.806080
643.480957	1319.862427	8095.455078	2594.837891	18.817179
643.814758	1322.593872	8059.644043	2591.805176	18.839273
644.148438	1322.809082	8031.532715	2585.955078	18.828409
644.482117	1322.593872	8010.153320	2580.922119	18.815956
644.815735	1320.400146	7981.741699	2578.341064	18.884197
645.149292	1319.002075	7963.890625	2578.104492	18.948435
645.482788	1318.636475	7946.726563	2576.125732	18.972122
645.816223	1318.098755	7929.542480	2574.727539	19.006874
646.149658	1321.884277	7921.261230	2572.039307	18.943531
646.483032	1322.830566	7925.670410	2575.157959	18.966497
646.816345	1325.002930	7925.347168	2577.480713	18.975946
647.149658	1325.712769	7925.153320	2575.243896	18.933895
647.482849	1323.067261	7931.089355	2575.373047	18.951296
647.816101	1323.690918	7933.498535	2576.061279	18.947153
648.149231	1325.583618	7934.251465	2577.115234	18.937729
648.482239	1325.562134	7940.402832	2579.760742	18.960375
648.815247	1325.282715	7940.918457	2579.567139	18.959394
649.148254	1326.250366	7943.090820	2579.007568	18.932861
649.481201	1326.723511	7939.155762	2578.083008	18.924345
649.814087	1323.475830	7926.875000	2577.050537	18.983778
650.146973	1323.949097	7914.399902	2574.405029	18.973755
650.479736	1322.873657	7914.377930	2573.093018	18.967133
650.812500	1323.820068	7909.216797	2573.372803	18.974602
651.145203	1324.185547	7898.226074	2574.362305	19.016870
651.477844	1325.045898	7892.375488	2575.889160	19.046452
651.810486	1322.529419	7888.052734	2577.201172	19.110003
652.143005	1322.421875	7879.083984	2575.243896	19.107618
652.475525	1322.830566	7875.061035	2574.189941	19.098219
652.807922	1321.389526	7863.532715	2573.523193	19.139503
653.140381	1321.131348	7854.090820	2574.792236	19.189785
653.472717	1322.206787	7835.443359	2570.297119	19.162369
653.805115	1322.744507	7811.312012	2565.844727	19.158316
654.137390	1323.303833	7778.468750	2559.650391	19.152826
654.469543	1322.292847	7743.497070	2553.348633	19.171728
654.801758	1323.992065	7706.976563	2546.035889	19.145336
655.133850	1322.938110	7666.024902	2540.723389	19.198622
655.465881	1323.798340	7628.988770	2535.131104	19.211676
655.797974	1326.874023	7598.726563	2530.291992	19.187599
656.129944	1328.723755	7561.474609	2526.291504	19.214111
656.461853	1331.111206	7537.429199	2522.248047	19.192327
656.793762	1330.465942	7519.620605	2518.204590	19.190643
657.125610	1329.476685	7518.437500	2519.559570	19.229122
657.457397	1330.100342	7528.761230	2521.925537	19.227139
657.789124	1327.884888	7549.730957	2530.291992	19.325567
658.120789	1325.863281	7595.220703	2540.701904	19.377403
658.452393	1325.712646	7671.316895	2554.381104	19.362513
658.783997	1325.906250	7765.521484	2574.663086	19.391792
659.115540	1325.024292	7877.062500	2598.881104	19.442146
659.447083	1322.099243	7988.430176	2622.539795	19.507591
659.778503	1323.475952	8102.724609	2645.983398	19.508171
660.109924	1322.895264	8201.403320	2667.384277	19.546230
660.441284	1327.067749	8284.660156	2683.085205	19.489752
660.772522	1329.347656	8343.678711	2695.882568	19.482042
661.103760	1328.401245	8376.391602	2706.959229	19.559589
661.434998	1329.067993	8385.361328	2710.185303	19.572844
661.766113	1332.659912	8352.733398	2705.668701	19.558325
662.097229	1332.573730	8281.864258	2694.635010	19.600004
662.428345	1334.746094	8188.197266	2674.245605	19.544889
662.759277	1336.638794	8055.599609	2644.263184	19.461706
663.090332	1339.757446	7920.400391	2617.550293	19.417446
663.421204	1336.617310	7777.931641	2588.320801	19.432423
663.752075	1336.230225	7635.720215	2562.468262	19.465672
664.082886	1333.584595	7499.488770	2540.271729	19.570318
664.413635	1332.401733	7379.345215	2519.581055	19.632717
664.744324	1331.347778	7271.783203	2497.492432	19.630625
665.075012	1333.627686	7177.986328	2478.393311	19.587532
665.405640	1333.477051	7108.106445	2464.907715	19.593130
665.736206	1333.971802	7047.948730	2453.314941	19.589563
666.066772	1332.638184	6992.845215	2444.905273	19.650642
666.397278	1331.175659	6956.948242	2438.194580	19.677633
666.727661	1328.895752	6917.653320	2434.064697	19.774858
667.058044	1331.648804	6889.562988	2431.290527	19.785152
667.388306	1331.068237	6871.109375	2426.859619	19.779482
667.718567	1330.874756	6853.817383	2423.655273	19.786201
668.048828	1331.842651	6843.343262	2420.020264	19.743763
668.378967	1334.186890	6841.342285	2421.160156	19.737473
668.709167	1333.907227	6841.601074	2421.655029	19.749605
669.039246	1334.165283	6841.170410	2421.999023	19.753637
669.369263	1335.434326	6843.127930	2424.515381	19.773815
669.699341	1336.638794	6839.643555	2423.848633	19.756659
670.029236	1335.993530	6832.223145	2424.386475	19.802538
670.359131	1335.735474	6828.630859	2422.278809	19.780886
670.688965	1335.993530	6818.565430	2416.191895	19.702402
671.018738	1338.402466	6799.423340	2410.320313	19.628525
671.348511	1339.563965	6785.142578	2409.029785	19.639158
671.678223	1340.617676	6766.085449	2403.910889	19.598185
672.007813	1339.284302	6734.426270	2396.275635	19.591537
672.337341	1339.714478	6704.465332	2390.640625	19.589468
672.666992	1340.596313	6671.987793	2384.123535	19.573261
672.996460	1339.822144	6636.758301	2373.778320	19.519892
673.325867	1340.768555	6604.001465	2366.551270	19.489594
673.655273	1343.693604	6570.578125	2361.174072	19.466288
673.984619	1346.166992	6531.841797	2352.786133	19.411535
674.314026	1346.769165	6501.708984	2348.097412	19.424635
674.643250	1347.457397	6475.360840	2341.365234	19.382343
674.972412	1348.102539	6445.852051	2335.127930	19.361982
675.301514	1346.123901	6418.300293	2331.299561	19.423136
675.630676	1348.425171	6399.007813	2325.427979	19.344358
675.959778	1348.726196	6375.133301	2320.330566	19.329998
676.288757	1346.769043	6355.583008	2316.846191	19.367403
676.617737	1347.994995	6330.139160	2315.512695	19.419706
676.946594	1345.564575	6317.104980	2312.135986	19.442091
677.275513	1346.769043	6303.340820	2309.146484	19.416191
677.604309	1348.296143	6301.619141	2309.447510	19.404173
677.933044	1348.339111	6297.081055	2309.942383	19.431267
678.261780	1347.371216	6302.092285	2314.888916	19.527187
678.590393	1346.725952	6318.115723	2315.813965	19.493301
678.919067	1347.736816	6339.990234	2319.857178	19.472576
679.247620	1350.597290	6369.906738	2326.610840	19.445175
679.576111	1354.576294	6414.687012	2333.471924	19.345339
679.904541	1357.888672	6464.951660	2341.322266	19.256344
680.232971	1360.211548	6527.389160	2349.710449	19.149698
680.561401	1367.094238	6579.482422	2358.291992	19.016191
680.889709	1368.986816	6631.660645	2365.002686	18.926043
681.217957	1370.320313	6676.612793	2370.551758	18.849911
681.546143	1373.030396	6715.370117	2378.638916	18.823372
681.874390	1376.299683	6754.256348	2383.693115	18.731899
682.202454	1380.837769	6781.851074	2391.694336	18.716055
682.530579	1384.322144	6789.357422	2394.210693	18.684217
682.858521	1385.376099	6781.614258	2394.554932	18.701525
683.186523	1385.913696	6746.879395	2388.252930	18.696989
683.514465	1386.193237	6701.539551	2381.843506	18.731617
683.842346	1388.881836	6645.490234	2370.143066	18.667192
684.170166	1386.279297	6579.826172	2355.066162	18.653666
684.497925	1386.472778	6514.226563	2344.333496	18.679928
684.825623	1385.655396	6446.218262	2329.708008	18.655090
685.153320	1384.773682	6370.703125	2314.308350	18.643156
685.481018	1383.354126	6294.414551	2301.295898	18.691315
685.808533	1384.106934	6218.426270	2282.261230	18.578712
686.136047	1385.784668	6154.891113	2265.119385	18.438145
686.463623	1386.774048	6099.916992	2252.924316	18.377338
686.791016	1387.526855	6063.267090	2245.073730	18.340345
687.118408	1389.634644	6037.909180	2237.696533	18.244661
687.445740	1388.042969	6019.132813	2233.373535	18.253384
687.772949	1389.613159	6015.045410	2234.448975	18.265015
688.100220	1391.161621	6012.099609	2237.718018	18.320011
688.427429	1396.474121	6003.087402	2238.169678	18.271461
688.754517	1399.270264	6008.249512	2234.836182	18.129087
689.081604	1402.259888	5999.280762	2227.910400	17.960556
689.408630	1401.657593	5991.171875	2225.200684	17.944016
689.735657	1402.023193	5971.492188	2222.060303	17.946005
690.062622	1401.377930	5948.737305	2212.467773	17.836502
690.389465	1403.141602	5917.722168	2204.875244	17.758762
690.716248	1404.238647	5876.018555	2194.379395	17.669491
691.043091	1406.045288	5826.141113	2183.238281	17.583172
691.369812	1407.744385	5769.511230	2173.710205	17.560907
691.696533	1407.658325	5708.041016	2157.105957	17.427464
692.023132	1403.399658	5655.582520	2143.254883	17.399422
692.349670	1401.700439	5592.693359	2132.113525	17.428162
692.676270	1403.227661	5541.073730	2123.553467	17.408230
693.002747	1403.378052	5492.959961	2112.735107	17.345467
693.329163	1403.313599	5450.717773	2105.723389	17.354574
693.655518	1405.593506	5407.400879	2099.787109	17.347002
693.981873	1404.389038	5364.772461	2093.786133	17.407333
694.308167	1406.260254	5326.423828	2087.742432	17.384024
694.634399	1406.195801	5301.151367	2081.074951	17.327005
694.960571	1406.604492	5276.309570	2073.568604	17.235529
695.286743	1409.400513	5256.242676	2071.202881	17.203783
695.612854	1414.239746	5242.563477	2069.288818	17.110598
695.938904	1418.713379	5237.853516	2069.417725	17.037981
696.264832	1420.197388	5241.918457	2069.869385	16.999460
696.590820	1425.208862	5250.500000	2067.288574	16.785120
696.916687	1428.047974	5274.652832	2069.611328	16.678690
697.242554	1430.822510	5313.324707	2074.773193	16.585970
697.568359	1435.919800	5373.332520	2081.247070	16.389627
697.894043	1442.802490	5455.772949	2093.355957	16.211269
698.219788	1451.663696	5556.581055	2115.358887	16.168295
698.545349	1459.578735	5674.015137	2140.351318	16.153347
698.870972	1470.827515	5799.234375	2163.300537	15.998335
699.196533	1477.903442	5917.076660	2187.668945	15.988687
699.521973	1484.678589	6021.197266	2205.413086	15.887392
699.847412	1493.948730	6108.326172	2224.533691	15.832796
700.172852	1502.121582	6172.678223	2240.105469	15.800770
700.498169	1510.208618	6207.930176	2248.278320	15.711226
700.823486	1514.832764	6215.135742	2248.256836	15.603763
701.148682	1517.456909	6188.142578	2245.826416	15.594488
701.473816	1518.682739	6122.328613	2233.222900	15.521179
701.799072	1518.897949	6019.906738	2214.231445	15.448392
702.124146	1515.607300	5893.568848	2183.560791	15.257181
702.449158	1510.832153	5747.744141	2154.890625	15.201129
702.774109	1510.466675	5599.274414	2120.929443	14.930093
703.099060	1508.014771	5460.439941	2090.925781	14.748185
703.424011	1501.906372	5323.562500	2059.932617	14.601686
703.748840	1494.937866	5198.386230	2036.575073	14.625214
704.073608	1492.292236	5088.071289	2011.754761	14.446453
704.398315	1489.216675	4990.511230	1990.354370	14.312926
704.723022	1488.506958	4912.694824	1970.158081	14.066141
705.047668	1487.194946	4849.225098	1955.597168	13.932124
705.372253	1486.958496	4791.949219	1937.917480	13.644788
705.696716	1489.560913	4742.028809	1930.389526	13.553666
706.021240	1486.377808	4705.701660	1920.345581	13.480091
706.345764	1486.076660	4678.321777	1916.624634	13.487309
706.670044	1489.023315	4652.834961	1912.753418	13.393026
706.994446	1493.626099	4636.037109	1907.763550	13.178971
707.318665	1498.056641	4628.853516	1903.698486	12.956505
707.642883	1500.013794	4621.927246	1900.450439	12.826641
707.967102	1503.326050	4619.539551	1902.257324	12.801796
708.291260	1507.907349	4620.271484	1901.784058	12.655226
708.615295	1511.757324	4613.496582	1902.794922	12.607043
708.939331	1514.875854	4623.369141	1906.816895	12.608715
709.263367	1517.671875	4634.337891	1910.602295	12.607396
709.587280	1525.285645	4649.156250	1910.688599	12.337354
709.911194	1529.910034	4660.512207	1913.140503	12.241430
710.234985	1534.168457	4682.300293	1915.205200	12.103582
710.558716	1538.620728	4706.905762	1919.614380	12.025232
710.882568	1546.449707	4732.435547	1925.615112	11.901038
711.206177	1551.869629	4761.234863	1934.648438	11.926932
711.529785	1558.451172	4791.948242	1939.422974	11.782037
711.853394	1566.322998	4811.542480	1944.240723	11.645368
712.176880	1571.054810	4837.051270	1948.435059	11.554827
712.500427	1575.356567	4848.170898	1950.628784	11.466346
712.823792	1581.636841	4854.945801	1949.402832	11.235297
713.147217	1587.981689	4857.269043	1949.553589	11.059655
713.470520	1594.068481	4847.482422	1945.509888	10.802235
713.793823	1596.627808	4831.975098	1944.585205	10.754870
714.117004	1599.639038	4813.134277	1943.187012	10.690788
714.440247	1599.165894	4789.754395	1936.089355	10.559916
714.763367	1603.875854	4761.858887	1929.723022	10.318206
715.086365	1608.371094	4733.424805	1922.195190	10.042198
715.409485	1608.629272	4712.583984	1916.473877	9.917819
715.732361	1610.801636	4689.419922	1913.527344	9.833168
716.055298	1614.780762	4668.600098	1910.967896	9.698908
716.378174	1617.232544	4652.146484	1905.612549	9.502082
716.700928	1617.490723	4631.476563	1902.214355	9.446748
717.023804	1617.533691	4612.958496	1899.245972	9.404752
717.346558	1623.104248	4589.815918	1894.600342	9.151415
717.669189	1625.040161	4560.134766	1884.964722	8.855747
717.991760	1629.470703	4523.679199	1881.200806	8.697719
718.314392	1629.169556	4482.189453	1873.888184	8.577529
718.636902	1627.621094	4440.808105	1868.661743	8.568241
718.959351	1629.341797	4385.704590	1861.736206	8.431198
719.281738	1630.244995	4331.891113	1849.046387	8.098818
719.604065	1629.642700	4277.132324	1837.346069	7.845294
719.926453	1629.685913	4219.189453	1826.075806	7.584075
720.248718	1630.782715	4167.097168	1815.192871	7.270792
720.570923	1631.535522	4116.423828	1806.374512	7.036091
720.893066	1628.094116	4070.225098	1798.480957	6.976974
721.215088	1627.599487	4024.885742	1792.716797	6.887676
721.537170	1624.631348	3983.074463	1783.661987	6.743035
721.859192	1624.695801	3953.220947	1774.692993	6.441725
722.181152	1625.448730	3915.560303	1767.466309	6.201339
722.503052	1625.964844	3889.772461	1761.013794	5.965567
722.824951	1626.739136	3870.092285	1757.873779	5.845475
723.146790	1625.857300	3852.434326	1757.529419	5.913656
723.468506	1624.373169	3838.518799	1756.411255	5.963388
723.790161	1624.953979	3823.914795	1755.271362	5.926316
724.111816	1626.889771	3815.247070	1755.464966	5.875420
724.433472	1631.427856	3805.503906	1751.851563	5.539075
724.755005	1636.890991	3800.771973	1750.216919	5.237161
725.076477	1641.708862	3796.147705	1751.614868	5.101375
725.397888	1646.956665	3793.975586	1752.152466	4.899621
725.719299	1652.613281	3796.771240	1753.980835	4.727616
726.040710	1656.097656	3798.341553	1757.164063	4.717782
726.361938	1660.291748	3797.567383	1757.809326	4.562705
726.683167	1668.808716	3805.762451	1756.905884	4.122559
727.004395	1676.659058	3811.676758	1760.046021	3.905680
727.325500	1686.273438	3822.968750	1763.573486	3.617738
727.646667	1695.306763	3836.905273	1765.487549	3.277028
727.967651	1702.640991	3852.821289	1773.488647	3.294964
728.288635	1711.201172	3870.888184	1780.048706	3.187848
728.609558	1721.976685	3887.062500	1781.511230	2.749754
728.930481	1729.267944	3898.289307	1786.587036	2.642624
729.251282	1736.430054	3910.721191	1789.662598	2.448271
729.572021	1742.646118	3921.582764	1789.512085	2.150864
729.892761	1749.743774	3928.292969	1792.609253	1.967616
730.213440	1756.110107	3928.594482	1793.835205	1.736496
730.534119	1766.390747	3936.121826	1794.824585	1.310478
730.854675	1771.036743	3941.284180	1795.211670	1.113925
731.175171	1775.725342	3945.972412	1796.373047	0.951399
731.495605	1783.597290	3952.231445	1796.071899	0.575229
731.816101	1788.436646	3954.468506	1795.233154	0.313777
732.136475	1790.307739	3957.630371	1798.244507	0.366201
732.456787	1797.340942	3961.308350	1800.051147	0.125242
732.777039	1803.900879	3962.813477	1801.384399	-0.116562
733.097229	1807.621826	3969.911133	1804.675415	-0.136264
733.417480	1813.644165	3973.847412	1806.998169	-0.307656
733.737549	1815.558472	3973.825684	1808.869263	-0.309934
734.057617	1816.268066	3964.921631	1806.890503	-0.436439
734.377563	1818.461670	3945.822021	1806.030151	-0.584364
734.697510	1819.666138	3920.313477	1800.588623	-0.908173
735.017517	1818.268433	3893.535889	1793.964111	-1.171142
735.337341	1818.719971	3861.488525	1789.920654	-1.409818
735.657166	1820.462158	3826.151367	1784.457764	-1.795113
735.976868	1816.547607	3791.652344	1778.112915	-1.945957
736.296631	1813.084839	3753.604736	1771.058105	-2.165746
736.616272	1813.213745	3716.202393	1764.218628	-2.574641
736.935852	1811.278076	3682.929443	1755.852051	-2.961344
737.255371	1811.815918	3650.839600	1751.700806	-3.268860
737.574829	1811.643799	3622.341553	1750.195313	-3.393636
737.894348	1811.407349	3606.791260	1750.087891	-3.415395
738.213745	1814.203247	3598.833496	1753.528931	-3.399826
738.533081	1817.063965	3588.465820	1755.056152	-3.500494
738.852356	1821.601929	3593.047119	1755.572388	-3.727439
739.171570	1827.516724	3600.704102	1757.422241	-3.953022
739.490784	1835.560669	3604.403320	1759.917114	-4.276443
739.809937	1843.583130	3611.028320	1763.508911	-4.530507
740.129028	1851.089478	3604.791260	1764.283081	-4.949895
740.447998	1855.305176	3598.725830	1766.562988	-5.090119
740.767029	1858.983154	3595.972656	1766.864014	-5.303379
741.085999	1862.682373	3588.423340	1765.573486	-5.627084
741.404846	1864.101929	3573.109375	1763.336792	-5.896121
741.723633	1863.327637	3551.988525	1761.745361	-6.015552
742.042358	1861.714478	3528.221924	1757.637207	-6.245233
742.361145	1858.617310	3494.196289	1752.475098	-6.489580
742.679810	1856.509644	3461.418213	1746.883179	-6.830698
742.998413	1852.638184	3425.457031	1742.130005	-7.026123
743.316956	1846.250122	3390.420410	1736.279663	-7.121654
743.635498	1841.324951	3362.674805	1733.978394	-7.056007
743.953979	1838.141724	3338.628906	1730.623047	-7.165585
744.272400	1836.464111	3308.108643	1727.009644	-7.437562
744.590698	1833.302368	3283.417725	1724.450073	-7.506458
744.909058	1829.388184	3260.339600	1720.492554	-7.610016
745.227356	1827.409424	3239.820557	1716.406128	-7.859135
745.545471	1826.742554	3222.097900	1716.320190	-7.913566
745.863586	1825.409058	3203.257080	1718.621582	-7.750309
746.181702	1820.806519	3183.792236	1718.105347	-7.535015
746.499756	1820.118042	3175.942139	1716.320313	-7.655693
746.817810	1822.569946	3166.972900	1718.621826	-7.731917
747.135742	1823.430420	3161.961670	1719.438965	-7.769072
747.453613	1824.548828	3153.874756	1718.599976	-7.970119
747.771423	1827.086670	3149.702148	1718.965698	-8.174785
748.089233	1829.581543	3145.250000	1723.202759	-8.085531
748.406982	1837.389038	3144.432617	1728.880981	-8.301793
748.724609	1841.045410	3145.271240	1736.000000	-8.054235
749.042236	1846.572754	3143.980713	1741.807373	-8.074976
749.359863	1850.121826	3147.078125	1747.571411	-7.907006
749.677429	1858.208862	3152.046631	1755.228394	-7.959303
749.994873	1863.779297	3154.154541	1764.777832	-7.672300
750.312256	1868.812134	3155.143555	1770.369873	-7.652947
750.629639	1872.103027	3156.003906	1779.962524	-7.176606
750.946960	1880.189941	3156.842773	1792.437378	-6.873643
751.264282	1882.168823	3154.025146	1805.406616	-6.035447
751.581482	1887.266113	3152.132568	1813.514893	-5.830751
751.898621	1888.406128	3150.110840	1821.408691	-5.310072
752.215698	1892.427856	3147.938477	1825.581177	-5.324263
752.532715	1894.256348	3147.615723	1835.345581	-4.700230
752.849792	1898.020264	3148.476318	1845.024170	-4.238141
753.166748	1901.031372	3146.454590	1855.025513	-3.693994
753.483643	1904.773804	3142.066650	1865.349609	-3.186327
753.800476	1906.128906	3139.851563	1875.329224	-2.496484
754.117310	1911.591797	3139.421143	1885.007813	-2.165120
754.434082	1912.387451	3135.506836	1893.460571	-1.547427
754.750732	1916.517090	3139.636475	1900.407349	-1.317103
755.067383	1920.689575	3141.378662	1911.419556	-0.759409
755.383911	1923.765259	3137.077148	1921.205566	-0.210967
755.700562	1925.507324	3139.120117	1932.669434	0.590148
756.016968	1927.314087	3137.313477	1941.251465	1.151850
756.333435	1931.400757	3130.818115	1951.102051	1.642572
756.649780	1933.981934	3129.010986	1963.791748	2.494484
756.966064	1936.562866	3129.484619	1974.760986	3.202064
757.282410	1940.885620	3129.742432	1987.966797	3.960206
757.598633	1945.940186	3132.732178	2002.807373	4.791673
757.914795	1951.403076	3138.883545	2020.723389	5.837596
758.230896	1957.575806	3146.303955	2039.865601	6.922507
758.546936	1962.092651	3158.283691	2058.685303	8.075019
758.862976	1970.932495	3168.198975	2081.698975	9.251615
759.178894	1979.664795	3177.253662	2103.379150	10.330286
759.494812	1988.332764	3188.308838	2125.769043	11.453252
759.810669	1994.247314	3199.622070	2149.212646	12.856195
760.126526	2002.269653	3208.569580	2168.741943	13.800241
760.442261	2008.829590	3214.806885	2189.239014	14.959603
760.757935	2013.389160	3224.119629	2210.424316	16.274073
761.073608	2015.905762	3225.711670	2226.877930	17.438513
761.389160	2018.207031	3227.905518	2242.428223	18.535295
761.704712	2024.917603	3230.164063	2258.559326	19.385389
762.020203	2029.025513	3229.217285	2277.185303	20.676678
762.335571	2033.348755	3242.917969	2296.112305	21.723730
762.650940	2045.221191	3264.253906	2326.610840	23.083027
762.966370	2069.826416	3312.926514	2373.885498	24.459742
763.281677	2110.368896	3394.571045	2438.302002	25.535942
763.596863	2154.266602	3499.401367	2517.172119	26.979120
763.911987	2199.627197	3606.425537	2596.708740	28.225904
764.227112	2239.911865	3690.006104	2665.233398	29.330614
764.542236	2273.378174	3756.508545	2724.272949	30.401560
764.857178	2297.596436	3808.837646	2775.268555	31.607933
765.172119	2311.985352	3837.636719	2811.036621	32.710701
765.487061	2324.567383	3858.413330	2838.502197	33.506287
765.801880	2333.579590	3864.199219	2858.354004	34.285095
766.116760	2329.127197	3845.895996	2863.107422	35.205116
766.431458	2312.781006	3798.449463	2846.460205	35.921822
766.746155	2276.217529	3709.492188	2806.842285	37.021847
767.060791	2232.878906	3593.026367	2750.512695	38.057182
767.375427	2185.518066	3471.462402	2689.731201	39.209560
767.689941	2143.964600	3367.729004	2642.069336	40.702667
768.004395	2109.250732	3278.169434	2599.053223	41.902187
768.318848	2084.258301	3200.246094	2558.553711	42.500053
768.633179	2062.449219	3138.819336	2533.496582	43.762581
768.947632	2041.629395	3083.199219	2508.783936	44.851006
769.261841	2020.831177	3027.923584	2486.888916	46.277554
769.576111	2006.678955	2983.724365	2469.832764	47.403507
769.890259	1989.106689	2941.031250	2455.185547	48.961742
770.204285	1975.750122	2907.843994	2438.022217	49.595016
770.518433	1961.920410	2873.883057	2422.902100	50.548309
770.832458	1952.607422	2845.836670	2413.051514	51.548256
771.146362	1943.423706	2820.134521	2401.953369	52.301128
771.460205	1933.056763	2796.303711	2391.780029	53.139286
771.774109	1919.915283	2772.106934	2386.424561	54.742294
772.087952	1911.527344	2752.814209	2377.649414	55.405842
772.401672	1906.257813	2728.961670	2370.100098	56.380226
772.715332	1899.999146	2712.916748	2363.884277	57.064224
773.028992	1892.600342	2696.527588	2360.292480	58.175930
773.342590	1889.029785	2679.643555	2354.485107	58.872654
773.656128	1883.308716	2663.641846	2352.506348	60.127861
773.969604	1882.491455	2651.618896	2350.420166	60.838905
774.283020	1878.211426	2633.035889	2347.279785	62.142708
774.596375	1872.275024	2618.776123	2340.633789	62.740532
774.909729	1869.930542	2604.322510	2337.450928	63.660881
775.223022	1867.220581	2592.988037	2335.278809	64.491486
775.536194	1863.198730	2577.394775	2335.515381	66.132629
775.849304	1855.670776	2568.318359	2337.536865	67.616325
776.162476	1850.422729	2556.790039	2334.525635	68.534157
776.475525	1848.530029	2546.122070	2330.396240	69.075645
776.788513	1845.002808	2538.701660	2328.374512	69.680336
777.101440	1843.153198	2527.668213	2326.589355	70.624626
777.414307	1839.561279	2518.742432	2327.385010	71.825272
777.727173	1836.227661	2514.161133	2325.234131	72.131927
778.039978	1838.034058	2506.654541	2324.374023	72.737823
778.352722	1836.076904	2499.858154	2325.212646	73.689301
778.665405	1835.302612	2495.126465	2324.739502	74.176903
778.977966	1834.872559	2493.212158	2321.255371	73.880234
779.290649	1836.442871	2491.233643	2321.943604	74.145935
779.603149	1840.034424	2487.964600	2324.180420	74.721939
779.915588	1839.238647	2485.254150	2326.116211	75.366234
780.227966	1840.120361	2478.371582	2327.707764	76.394279
780.540405	1838.744019	2478.543457	2330.804932	76.908623
780.852722	1835.496460	2476.543457	2329.772461	77.104485
781.164917	1834.592896	2467.983398	2327.406738	77.805687
781.477173	1832.033325	2461.509277	2325.277344	78.357880
781.789246	1829.624634	2456.046387	2320.545898	78.369125
782.101379	1827.323120	2448.131348	2314.781494	78.519958
782.413452	1823.838989	2439.441895	2310.028320	78.977753
782.725403	1822.591675	2429.354736	2303.618896	79.277603
783.037292	1816.784424	2421.999268	2298.715088	79.629684
783.349182	1815.794922	2409.911621	2291.015137	79.987686
783.661072	1809.579224	2401.222168	2286.713379	80.645622
783.972839	1804.868652	2387.263672	2278.024170	81.243057
784.284546	1804.739746	2378.101074	2274.346191	81.904099
784.596191	1801.664063	2370.938965	2270.281006	82.318214
784.907898	1797.104370	2363.884277	2267.786377	83.044937
785.219421	1795.104248	2357.883545	2264.882813	83.474739
785.530884	1795.211670	2350.872070	2262.366211	84.071953
785.842346	1793.276123	2343.709961	2261.570557	85.077332
786.153748	1790.522949	2338.892090	2257.720459	85.197632
786.465149	1789.232300	2331.643799	2255.247070	85.915359
786.776428	1784.156616	2330.697510	2253.741455	85.919434
787.087646	1785.490112	2327.385254	2253.956543	86.449646
787.398804	1789.339844	2330.976807	2257.269043	86.391670
787.709961	1790.759644	2338.977783	2266.065918	86.700211
788.021057	1800.373535	2356.098389	2284.347900	87.088844
788.332031	1810.288696	2372.960693	2300.113037	87.053261
788.643005	1817.429565	2386.016113	2317.039795	87.868813
788.953918	1820.397583	2399.824219	2331.149170	88.147758
789.264832	1826.333862	2412.987061	2341.773926	87.861122
789.575623	1831.344971	2423.225098	2352.162354	87.993729
789.886353	1835.711304	2428.795898	2362.378662	88.801392
790.197083	1839.690308	2433.312500	2369.541016	89.257225
790.507690	1840.830200	2432.882080	2371.347656	89.606583
790.818359	1839.883667	2430.000244	2372.208008	90.206642
791.128845	1834.033569	2417.439453	2362.808838	90.635918
791.439331	1825.021606	2397.372314	2343.494629	90.586594
791.749756	1813.493408	2376.122314	2327.234619	91.310844
792.060120	1803.513794	2354.442139	2307.188965	91.422989
792.370483	1794.286987	2334.676270	2289.961182	91.725395
792.680786	1784.500732	2314.157715	2274.045166	92.426697
792.990967	1776.564331	2292.499023	2257.785156	93.271652
793.301086	1769.896606	2278.476074	2246.622559	93.736771
793.611267	1764.067993	2265.033447	2235.739502	94.152504
793.921326	1759.529785	2255.290039	2225.652100	94.021721
794.231323	1754.927246	2244.105713	2216.231689	94.301872
794.541260	1753.980835	2236.771729	2208.789795	94.204132
794.851074	1751.786743	2231.502197	2205.843262	94.651215
795.161011	1751.528931	2228.921143	2201.842773	94.327858
795.470764	1754.389404	2235.287354	2204.896729	93.680443
795.780518	1759.572754	2239.739990	2211.929932	94.208252
796.090149	1766.197388	2247.396729	2220.361084	94.381615
796.399780	1772.499268	2258.581055	2234.040283	94.951309
796.709412	1774.069214	2264.280518	2238.363281	94.713051
797.018860	1780.285156	2268.474609	2246.471680	95.492950
797.328308	1782.737061	2277.400635	2252.150146	94.895424
797.637756	1785.447144	2283.745361	2259.247803	95.083755
797.947205	1786.630005	2284.154053	2261.054443	95.357086
798.256470	1786.974121	2284.003662	2260.796387	95.330803
798.565674	1787.748413	2281.400879	2260.452148	95.756378
798.874817	1783.619019	2271.808350	2256.494629	96.863159
799.183960	1780.306641	2263.377197	2244.471680	96.086388
799.493103	1774.843628	2252.300537	2231.351807	95.612434
799.802124	1768.068481	2240.364014	2217.522217	95.163666
800.111084	1765.423096	2231.007813	2205.778809	94.581223
800.419983	1757.594238	2220.597900	2193.540771	94.156174
800.728821	1752.002075	2205.671387	2182.119873	94.808662
801.037659	1750.432007	2192.680420	2169.301025	94.713516
801.346436	1747.657471	2185.152588	2161.730225	94.646255
801.655151	1742.603027	2176.721436	2154.912109	94.976181
801.963745	1741.591919	2167.816895	2146.330566	94.958923
802.272400	1741.463013	2161.794678	2138.824463	94.535217
802.580933	1737.268799	2153.707520	2134.393555	95.362114
802.889404	1734.343750	2144.631348	2130.973633	96.671188
803.197815	1729.095825	2138.264893	2124.370850	96.604324
803.506226	1725.095581	2133.769775	2118.477539	96.258087
803.814575	1721.826294	2127.876465	2110.132568	95.630119
804.122864	1719.697144	2125.983643	2108.089355	95.595650
804.431030	1715.395386	2124.499756	2108.153809	96.004456
804.739197	1712.749878	2121.488525	2110.713379	97.363808
805.047241	1713.330566	2120.800293	2113.250977	98.147270
805.355408	1710.276489	2122.757568	2115.466553	98.232399
805.663391	1708.082764	2125.682617	2118.584961	98.300369
805.971313	1711.201294	2130.242432	2123.897461	98.485832
806.279175	1714.319946	2137.211182	2126.263428	97.411209
806.587036	1716.363281	2140.802979	2127.403320	96.842979
806.894836	1720.126953	2140.845947	2130.521973	97.546112
807.202576	1724.278198	2142.029053	2136.781006	98.743736
807.510193	1724.471802	2142.308350	2136.651855	98.646240
807.817810	1725.396484	2135.447266	2132.436035	99.265648
808.125427	1725.224487	2131.231934	2125.188232	98.511429
808.432922	1721.933594	2127.898193	2119.273438	97.875488
808.740295	1718.040649	2119.531494	2114.197510	98.671455
809.047729	1717.632080	2107.551270	2107.573242	100.005638
809.355103	1711.997192	2094.883057	2099.185059	101.123573
809.662415	1704.103516	2085.247559	2091.700195	101.692963
809.969604	1702.103394	2072.256836	2082.408691	102.742607
810.276794	1697.048950	2061.631836	2075.741211	103.870003
810.583923	1689.972778	2053.394043	2066.471191	103.598343
810.890991	1685.821777	2045.887817	2057.007568	103.088257
811.197998	1681.670654	2042.532715	2048.232422	101.579468
811.505005	1678.207886	2036.574951	2039.134277	100.714165
811.811829	1677.541138	2028.573853	2034.122925	101.580788
812.118713	1675.046387	2022.917236	2025.992920	100.884148
812.425537	1671.669800	2017.002441	2016.529419	99.863022
812.732300	1667.927246	2014.357056	2006.463745	97.721527
813.038940	1665.281738	2007.947754	1998.957397	97.376350
813.345581	1662.550049	2005.667847	1995.645264	97.078964
813.652100	1659.560425	2000.721069	1990.956543	97.137848
813.958740	1655.753540	1994.419067	1985.622559	97.402596
814.265137	1654.699585	1989.364746	1981.256226	97.577126
814.571533	1651.064941	1985.213745	1977.685913	97.747162
814.877930	1647.687988	1978.890503	1979.062500	100.051933
815.184265	1642.418701	1974.631714	1975.320190	100.207237
815.490540	1640.332397	1971.986206	1971.362549	99.811958
815.796692	1638.417969	1970.760254	1967.942871	99.152267
816.102844	1639.880737	1969.448120	1970.523804	100.326393
816.408936	1640.934326	1967.319092	1974.502808	102.200996
816.714966	1639.321411	1963.705566	1977.686035	104.309853
817.020935	1640.224609	1964.114380	1976.180420	103.725357
817.326843	1644.332764	1969.319214	1978.094604	102.700233
817.632690	1644.784424	1974.051147	1982.159424	102.462524
817.938477	1646.569580	1978.933228	1989.278564	103.112656
818.244263	1651.344482	1986.310547	1991.966919	101.688637
818.549988	1655.624512	1993.666504	1998.182861	101.336037
818.855652	1664.614746	2002.420288	2010.184448	102.298409
819.161194	1673.196533	2017.282349	2030.509766	103.844223
819.466797	1682.531250	2035.585571	2051.286621	104.447205
819.772278	1697.113647	2064.341797	2073.654785	102.536026
820.077698	1716.857910	2098.711670	2105.163818	101.689690
820.383057	1736.817505	2138.243408	2145.018311	101.687706
820.688354	1759.551514	2182.098389	2191.647949	102.260002
820.993652	1794.373047	2239.266846	2253.612305	103.224464
821.298828	1849.239868	2335.816162	2355.302490	104.004784
821.604004	1957.984497	2530.765381	2558.553467	104.851433
821.909058	2141.426758	2852.417969	2893.433594	105.768791
822.214111	2372.982178	3276.234131	3332.412598	106.219582
822.519165	2622.045410	3728.139160	3801.137451	106.599648
822.824036	2852.590088	4134.684570	4226.394531	107.153137
823.128906	3047.818604	4480.727051	4584.159668	107.218369
823.433716	3204.956299	4764.031250	4875.034180	107.119797
823.738525	3333.811035	4996.641113	5113.278809	107.014412
824.043213	3437.909912	5184.965332	5307.625488	107.020966
824.347900	3516.478760	5324.487793	5448.331055	106.849701
824.652466	3560.140381	5400.970703	5521.027832	106.521904
824.957031	3532.158447	5357.825684	5474.829102	106.408806
825.261536	3423.585693	5163.371094	5271.448730	106.212128
825.565979	3249.542725	4848.858887	4943.644531	105.926636
825.870300	3048.249023	4486.792480	4562.802246	105.283798
826.174622	2863.623535	4162.429688	4220.652344	104.482780
826.478821	2716.530029	3907.107666	3958.770264	104.339287
826.783142	2622.389404	3735.882568	3782.060059	104.147087
827.087280	2566.619141	3632.514648	3674.326416	103.922691
827.391357	2532.292236	3564.441406	3607.049072	104.128052
827.695435	2504.052246	3512.069580	3556.333496	104.391190
827.999451	2473.704346	3458.062744	3506.133545	104.883469
828.303406	2449.722900	3408.035156	3451.825684	104.569550
828.607239	2422.622559	3363.277100	3403.777100	104.305511
828.911011	2400.340332	3317.550781	3357.470215	104.352264
829.214844	2377.778320	3273.803711	3311.012695	104.152672
829.518616	2349.990234	3221.087402	3258.038086	104.241852
829.822205	2310.307861	3143.981201	3178.673340	104.161362
830.125793	2246.235352	3029.880615	3062.874023	104.210251
830.429382	2162.999268	2886.852539	2915.608398	103.972610
830.732849	2077.978027	2735.048584	2755.932617	103.178352
831.036316	1998.312134	2597.225098	2610.603027	102.233704
831.339661	1931.916870	2478.156494	2488.351563	101.866409
831.642944	1874.963379	2376.767822	2385.177490	101.675888
831.946228	1826.355347	2293.552979	2298.779541	101.118706
832.249512	1789.210938	2229.093506	2232.943359	100.875198
832.552673	1762.218384	2179.517334	2187.926758	102.015205
832.855774	1744.603394	2150.331055	2158.439453	101.998482
833.158813	1744.388306	2141.878418	2157.536133	103.939148
833.461731	1761.465576	2169.150635	2188.615479	104.774483
833.764771	1792.566284	2216.683350	2238.900879	105.238541
834.067627	1828.678223	2274.453857	2301.188477	105.997330
834.370422	1863.521118	2330.224365	2366.658447	107.806694
834.673157	1895.202637	2384.897461	2420.342773	107.238243
834.975891	1919.463745	2426.300781	2469.531738	108.529556
835.278564	1941.595581	2461.617188	2507.106445	108.747574
835.581177	1955.188599	2485.383301	2535.131592	109.383026
835.883728	1963.296997	2501.449951	2549.864502	108.996429
836.186218	1962.845337	2501.858398	2546.143799	108.216019
836.488647	1949.682495	2482.694580	2519.581055	106.920380
836.791077	1918.388184	2430.537598	2464.241211	106.580818
837.093384	1879.953247	2358.593506	2393.974121	107.391899
837.395630	1831.882813	2283.444336	2312.350830	106.401451
837.697815	1787.984863	2209.714844	2231.243896	105.104935
838.000061	1746.109009	2140.351318	2159.493408	104.855415
838.302124	1713.395020	2077.698242	2092.947510	104.185875
838.604126	1681.778198	2021.906372	2036.768677	104.369621
838.906128	1653.387817	1971.297974	1982.697388	103.585732
839.208069	1629.255737	1927.894653	1938.433716	103.529030
839.510010	1614.049316	1895.783325	1910.881714	105.359093
839.811829	1602.564087	1873.436401	1889.180176	105.812248
840.113586	1595.337402	1860.596191	1873.027710	104.686562
840.415222	1589.250732	1854.724487	1863.607300	103.346024
840.716919	1588.153809	1848.680786	1861.435059	104.895569
841.018555	1584.669434	1844.207153	1858.187134	105.386490
841.320068	1587.228882	1840.270996	1856.875000	106.561752
841.621521	1584.884399	1839.905151	1854.380371	105.676094
841.922974	1584.669434	1837.496582	1848.981934	104.542770
842.224365	1581.486328	1836.507080	1846.874146	104.065186
842.525635	1580.367920	1829.796509	1839.260254	103.794167
842.826965	1575.205933	1815.300049	1825.193848	104.120804
843.128174	1562.042969	1796.114868	1805.621826	104.061554
843.429260	1550.062988	1774.564087	1785.834106	105.020027
843.730408	1537.050659	1751.808472	1763.293701	105.347992
844.031433	1523.134888	1728.859375	1738.903809	104.882469
844.332397	1514.166016	1708.362183	1718.535522	105.238693
844.633362	1501.132324	1689.413574	1699.845215	105.540459
844.934204	1490.485840	1670.378906	1683.993652	107.568245
845.235046	1481.495483	1652.462891	1667.045288	108.529343
845.535828	1475.924927	1636.116699	1653.021973	110.553146
845.836487	1466.848511	1625.061401	1639.106201	108.877151
846.137146	1458.696899	1616.716431	1624.975464	105.226593
846.437744	1452.437988	1608.263672	1616.178833	105.079498
846.738281	1447.577026	1599.789551	1605.897949	104.013069
847.038757	1441.984985	1591.508911	1598.068848	104.387215
847.339172	1438.350098	1582.497192	1590.605591	105.625084
847.639526	1433.231323	1576.689819	1582.217529	103.853180
847.939819	1429.703979	1571.979614	1573.657349	101.179214
848.240112	1428.284424	1570.302002	1568.817871	98.954964
848.540283	1425.251831	1569.205078	1566.581177	98.177254
848.840393	1424.499146	1570.624512	1563.892700	95.393127
849.140564	1420.412598	1567.936035	1563.376587	96.909340
849.440552	1419.036011	1564.043091	1560.408325	97.493385
849.740540	1419.294189	1560.580444	1554.880737	95.965843
850.040405	1416.863770	1562.344116	1550.622192	91.942604
850.340210	1417.358398	1559.139526	1545.911987	90.670448
850.640137	1417.380005	1556.988403	1543.890137	90.617851
850.939819	1416.024902	1553.869873	1540.921997	90.606926
851.239502	1417.530518	1549.202759	1538.298096	91.718330
851.539185	1414.885132	1545.438721	1536.190308	92.916000
851.838745	1414.863403	1543.890259	1532.103882	90.865173
852.138245	1411.314575	1536.190308	1527.888306	93.351791
852.437744	1412.045898	1532.598511	1523.651123	92.578026
852.737122	1410.927490	1528.555054	1522.876831	95.172714
853.036499	1408.970215	1525.651489	1519.242065	94.506897
853.335815	1410.669434	1518.682861	1518.790283	100.099449
853.635010	1409.443481	1517.478394	1518.403198	100.856026
853.934204	1408.518677	1517.736328	1516.317139	98.700584
854.233276	1407.077637	1515.478149	1515.951294	100.436478
854.532410	1403.206177	1514.230591	1516.252441	101.821083
854.831482	1400.990723	1513.628418	1512.380859	98.892418
855.130371	1398.237671	1508.208252	1512.961670	104.322449
855.429260	1398.581909	1509.326660	1507.348022	98.213333
855.728088	1397.248413	1509.455933	1505.584351	96.549622
856.026855	1395.957886	1508.681641	1502.143066	94.199471
856.325623	1396.495728	1506.917847	1505.132690	98.383331
856.624329	1393.054443	1508.487915	1502.035522	94.410294
856.922913	1392.538208	1505.713379	1500.787964	95.647972
857.221436	1389.935669	1502.487183	1501.605347	99.216507
857.519958	1390.796021	1502.250488	1498.379028	96.526421
857.818420	1394.280151	1502.659302	1495.518433	93.411217
858.116821	1395.871826	1501.046143	1492.507446	91.881386
858.415161	1396.108398	1502.444214	1491.432129	89.644051
858.713379	1397.656982	1498.357544	1493.669067	95.344139
859.011658	1397.592529	1495.496948	1493.174194	97.627525
859.309814	1397.162231	1494.722778	1493.561401	98.809586
859.607910	1396.087036	1493.776489	1489.388916	95.508652
859.905945	1396.065430	1491.152344	1488.679199	97.399071
860.203979	1394.774902	1491.647217	1487.238159	95.448586
860.501953	1395.377197	1493.131226	1481.688965	88.294846
860.799744	1395.162231	1489.001709	1481.710449	92.230072
861.097656	1392.258667	1487.668091	1480.721191	92.718857
861.395325	1388.752808	1486.291626	1479.258545	92.789452
861.693115	1386.924561	1484.721558	1478.140137	93.270325
861.990784	1384.214478	1486.678833	1477.129272	90.680115
862.288330	1384.515747	1485.603394	1474.720459	89.234161
862.585815	1382.988525	1484.850708	1473.860107	89.210320
862.883301	1381.461670	1483.237427	1474.548340	91.462517
863.180786	1379.676270	1482.119141	1476.161377	94.184303
863.478149	1379.052612	1479.710083	1475.795654	96.111137
863.775452	1380.816284	1477.000122	1476.634644	99.620018
864.072693	1380.063599	1478.957520	1475.989258	96.998543
864.369873	1378.385864	1477.236816	1475.128906	97.867584
864.667114	1382.278931	1478.011108	1477.559448	99.528206
864.964111	1385.526611	1479.495239	1477.645386	98.031410
865.261169	1385.741821	1477.559448	1477.882080	100.351387
865.558105	1386.085815	1478.484253	1477.989624	99.464676
865.855042	1386.623535	1479.710327	1476.204468	96.233772
866.151917	1386.558960	1479.387695	1477.301270	97.752396
866.448730	1387.311646	1479.215698	1475.688232	96.161797
866.745422	1388.300903	1479.581177	1473.773926	93.638000
867.042114	1384.881226	1478.871582	1472.526611	93.249336
867.338806	1383.504639	1476.828247	1470.375854	93.085999
867.635376	1384.429565	1473.279419	1470.870361	97.288620
867.931824	1381.697998	1470.418823	1467.644409	96.872871
868.228271	1377.482544	1468.289551	1464.934326	96.305107
868.524658	1376.987793	1467.644287	1463.105957	94.993927
868.821045	1375.654297	1464.762207	1464.052368	99.203392
869.117310	1372.944336	1463.235229	1462.224365	98.880440
869.413574	1373.718628	1464.590088	1457.707520	92.426041
869.709717	1373.309937	1463.858887	1456.825806	92.232841
870.005859	1372.535645	1463.321167	1455.449341	91.329208
870.301880	1374.751099	1464.073975	1455.857910	90.801834
870.597900	1373.482178	1465.471924	1455.943848	89.642242
870.893860	1372.944458	1469.988647	1455.793457	85.372444
871.189636	1372.858521	1471.795288	1456.997925	85.043617
871.485535	1375.181274	1473.128784	1457.901245	84.453369
871.781311	1373.159546	1473.838379	1457.987183	84.255684
872.077026	1372.944336	1476.053711	1455.298584	79.870766
872.372681	1373.116333	1476.914063	1458.460327	82.221443
872.668274	1372.557129	1475.623535	1460.525269	85.350937
872.963806	1373.180908	1475.322388	1458.912109	83.933777
873.259338	1372.987305	1476.806519	1459.600342	83.426788
873.554688	1371.202026	1477.107666	1460.202515	84.037537
873.850098	1372.965698	1475.989258	1459.987427	84.467796
874.145447	1374.170166	1474.548218	1459.041016	84.551201
874.440674	1374.815430	1472.956665	1458.460327	85.229103
874.735840	1375.740356	1470.762817	1458.826050	87.437950
875.031006	1375.310181	1471.816772	1459.901367	87.653275
875.326050	1376.858887	1473.322266	1463.665283	89.988968
875.621094	1378.493530	1472.999756	1462.095215	88.461563
875.916077	1378.041870	1472.397461	1459.858398	86.710846
876.210999	1377.955688	1474.505249	1460.568237	85.564911
876.505798	1377.288940	1473.386719	1460.697144	86.795143
876.800598	1377.891113	1472.096313	1461.385498	88.630333
877.095337	1378.450317	1474.225586	1462.740356	88.008148
877.390015	1380.256958	1476.441040	1464.805176	87.902504
877.684692	1383.956421	1477.709961	1467.192505	88.781807
877.979187	1384.063965	1475.107544	1469.235718	93.550529
878.273804	1385.999634	1474.612793	1469.321777	94.029083
878.568237	1385.462036	1472.074829	1471.451050	99.279808
878.862610	1389.720703	1475.301147	1474.634277	99.220772
879.156921	1391.548828	1481.366455	1479.538086	97.964355
879.451172	1393.570557	1484.979614	1485.560425	100.635399
879.745422	1397.377441	1492.400024	1492.958984	100.588242
880.039612	1404.453613	1503.562622	1502.164429	98.589233
880.333679	1414.175293	1517.392212	1517.994507	100.583527
880.627686	1426.692871	1541.588989	1541.717896	100.112190
880.921692	1448.071899	1581.056152	1583.529419	101.859818
881.215698	1485.151855	1648.505371	1649.473145	100.592438
881.509460	1540.857544	1743.699951	1753.055908	104.612427
881.803345	1615.834473	1867.951904	1884.448486	106.543213
882.097046	1697.027344	2007.667969	2032.488281	107.990044
882.390808	1781.962769	2147.577881	2184.872803	110.200600
882.684448	1864.316895	2284.390625	2326.976318	110.137672
882.978027	1938.240112	2405.029053	2458.003418	111.348679
883.271545	2002.420044	2512.375732	2569.372070	111.176727
883.565002	2054.275879	2604.021729	2663.813721	110.876297
883.858398	2095.011963	2674.782959	2737.887695	110.884422
884.151733	2119.531494	2717.541016	2780.817627	110.581207
884.445068	2122.865479	2726.273438	2788.689697	110.343956
884.738281	2102.690674	2690.333740	2744.082275	109.146461
885.031433	2051.652100	2612.775635	2658.071533	108.072357
885.324585	1987.816040	2503.751221	2544.831787	107.962349
885.617676	1917.505981	2386.231201	2419.955811	107.194962
885.910645	1845.475830	2264.646240	2295.101563	107.265617
886.203552	1777.919189	2154.202393	2176.979248	106.053116
886.496521	1716.234253	2049.866943	2071.611328	106.517464
886.789368	1661.582153	1953.898071	1974.136841	106.923592
887.082153	1610.737183	1865.629028	1887.502686	108.581543
887.374817	1567.570679	1788.802368	1811.643799	110.324661
887.667480	1530.146606	1719.998047	1740.753418	110.932426
887.960083	1495.884277	1663.797607	1684.531372	112.347900
888.252625	1474.569824	1620.888794	1639.773315	112.906410
888.545166	1457.858154	1588.239746	1606.478638	113.988853
888.837524	1442.092651	1563.978638	1576.302856	110.111267
889.129883	1430.650513	1542.836304	1556.988403	112.614876
889.422241	1421.100952	1526.576172	1536.104248	109.033470
889.714478	1416.218750	1510.144165	1511.800171	101.763107
890.006714	1430.177124	1493.819580	1514.402588	132.341629
890.298767	1380.493774	1503.756104	1468.267944	71.209244
890.590881	1384.515625	1464.009399	1495.948730	140.178406
890.882935	1380.020264	1486.011963	1451.943359	67.857292
>>>>>End Processed Spectral Data<<<<<
