Jaz Data File
++++++++++++++++++++++++++++++++++++
Date: Mon Apr 22 19:24:56 2019
User: jaz
Dark Spectrum Present: Yes
Reference Spectrum Present: Yes
Processed Spectrum Present: Yes
Spectrometers: JAZA2928
Integration Time (usec): 40000 (JAZA2928)
Spectra Averaged: 10 (JAZA2928)
Boxcar Smoothing: 5 (JAZA2928)
Correct for Electrical Dark: No (JAZA2928)
Strobe/Lamp Enabled: Yes (JAZA2928)
Correct for Detector Non-linearity: No (JAZA2928)
Correct for Stray Light: No (JAZA2928)
Number of Pixels in Processed Spectrum: 2048
>>>>>Begin Processed Spectral Data<<<<<
W	D	R	S	P
190.104553	0.000000	0.000000	0.000000	0.000000
190.488098	0.000000	0.000000	0.000000	0.000000
190.871613	1085.940918	1056.130981	1065.357666	69.048294
191.255096	1070.326050	1101.319336	1070.799438	1.527391
191.638535	0.000000	0.000000	0.000000	0.000000
192.021942	909.790100	910.671936	899.229736	-1197.542969
192.405334	1011.974854	1014.813904	1001.844666	-356.816071
192.788696	1115.987793	1119.256958	1103.384155	-385.530792
193.172012	1123.859741	1125.967529	1109.729004	-670.406006
193.555313	1129.924927	1129.688354	1114.912476	6345.820313
193.938568	1131.301514	1135.388062	1117.450317	-338.946136
194.321793	1133.688843	1137.689331	1118.181763	-387.629669
194.704987	1135.775146	1138.614136	1121.192627	-513.651794
195.088150	1136.871948	1135.818115	1122.719849	1342.916748
195.471298	1134.785767	1136.377319	1125.343750	-593.258179
195.854401	1133.774902	1137.474121	1128.419312	-144.776260
196.237457	1133.538208	1135.990112	1129.731323	-155.262375
196.620499	1134.333984	1133.925415	1129.129028	1273.946777
197.003494	1134.441528	1132.763916	1130.053955	261.536774
197.386475	1128.849487	1133.882446	1128.032227	-16.238176
197.769424	1126.268555	1133.516724	1128.268799	27.596544
198.152344	1126.440552	1134.656738	1131.344604	59.687698
198.535217	1125.193237	1135.603027	1135.194458	96.075142
198.918076	1121.085083	1139.818726	1133.559814	66.589996
199.300903	1118.375122	1144.485840	1133.366211	57.413548
199.683670	1118.031006	1145.217163	1132.398315	52.847885
200.066422	1119.235474	1145.432251	1133.817871	55.664852
200.449142	1119.106567	1147.733643	1135.431030	57.024559
200.831848	1116.633057	1148.787476	1137.022583	63.411274
201.214508	1114.181152	1148.873535	1135.560059	61.624207
201.597137	1114.589722	1148.615356	1137.044067	65.992439
201.979736	1114.503662	1149.647827	1138.334595	67.809074
202.362274	1113.815308	1148.249878	1136.054688	64.584457
202.744827	1111.922729	1148.228271	1132.376831	56.338787
203.127319	1111.621582	1146.314087	1133.366089	62.677822
203.509796	1112.202271	1145.088013	1133.129639	63.636600
203.892227	1112.417480	1143.130737	1131.731567	62.885181
204.274643	1109.793457	1141.022949	1130.419556	66.046860
204.657013	1108.890137	1140.205688	1128.892456	63.873436
205.039352	1109.492310	1139.797119	1128.698975	63.378273
205.421661	1111.212891	1139.861572	1129.623901	64.264778
205.803940	1110.331177	1139.904541	1128.569946	61.672962
206.186188	1110.911865	1139.388428	1128.032104	60.120457
206.568405	1111.772217	1138.528198	1128.440796	62.298515
206.950592	1114.116577	1138.958252	1128.806519	59.134262
207.332748	1113.793945	1135.925659	1128.569946	66.763924
207.714859	1111.815186	1136.205322	1127.860229	65.784966
208.096939	1107.836182	1135.409546	1126.354614	67.160583
208.478989	1107.728638	1133.839355	1124.139282	62.850224
208.861008	1107.492065	1134.570679	1123.042480	57.426926
209.243011	1105.169067	1134.936401	1119.299927	47.471027
209.624969	1102.717163	1136.334351	1118.396606	46.641151
210.006897	1102.502075	1134.678223	1120.697998	56.550968
210.388794	1100.716919	1135.990234	1119.235474	52.500183
210.770645	1099.297363	1136.828979	1119.020386	52.550423
211.152481	1097.834839	1136.893555	1119.644043	55.836971
211.534286	1097.791870	1140.657349	1119.385986	50.376472
211.916061	1099.103882	1141.130615	1119.106323	47.594566
212.297791	1100.114746	1145.475220	1120.827026	45.661518
212.679489	1101.383667	1147.733521	1121.085083	42.505886
213.061157	1101.878418	1147.475464	1122.010010	44.151089
213.442795	1104.115234	1147.819580	1123.859619	45.177166
213.824402	1103.556152	1147.970215	1124.182251	46.440468
214.205963	1105.169067	1150.508057	1123.924194	41.366444
214.587524	1106.975830	1149.475708	1124.483398	41.194397
214.969025	1105.685425	1149.948853	1122.483154	37.949455
215.350510	1105.448730	1150.551025	1121.558472	35.718231
215.731949	1101.448364	1150.766113	1119.321411	36.240597
216.113358	1102.717285	1150.809082	1120.031250	36.001907
216.494736	1103.039917	1149.540161	1120.568970	37.696690
216.876083	1102.007568	1149.970337	1121.278687	40.179329
217.257401	1099.598633	1150.228394	1122.784302	45.794544
217.638702	1100.200928	1152.594238	1125.601807	48.481148
218.019943	1099.168457	1151.519043	1124.806030	48.972847
218.401169	1097.168335	1151.454590	1123.988647	49.405346
218.782349	1096.888550	1155.368896	1124.031616	46.413998
219.163498	1098.523193	1157.369263	1126.074829	46.819839
219.544632	1101.856934	1159.218872	1126.376099	42.744659
219.925705	1105.599365	1161.563232	1127.687988	39.469437
220.306778	1105.814453	1164.509888	1129.021606	39.538261
220.687805	1107.900757	1166.639282	1129.924927	37.495274
221.068802	1108.803955	1169.843872	1130.312256	35.236450
221.449738	1110.094604	1175.522095	1130.849854	31.722521
221.830673	1108.309326	1179.156860	1130.892822	31.876192
222.211563	1108.954590	1185.587891	1132.527344	30.760458
222.592438	1108.954590	1191.846680	1134.204956	30.461733
222.973267	1107.922119	1195.911621	1135.194458	30.994991
223.354065	1108.631958	1201.761841	1136.721436	30.161615
223.734848	1106.352051	1206.730225	1139.711182	33.233452
224.115555	1108.330933	1213.935425	1143.582642	33.380878
224.496262	1107.900757	1221.119019	1145.475342	33.187744
224.876923	1108.718018	1231.227905	1147.497070	31.653814
225.257568	1106.029419	1241.035522	1147.497070	30.715389
225.638168	1108.717896	1250.284058	1153.304199	31.495029
226.018723	1111.836670	1262.651245	1156.637939	29.706194
226.399277	1112.675537	1279.104980	1165.456299	31.713596
226.779785	1114.353149	1296.892090	1172.102295	31.636618
227.160263	1116.073975	1316.701050	1181.243286	32.482811
227.540695	1116.353394	1346.403564	1193.502808	33.535908
227.921112	1115.987915	1386.473145	1206.644043	33.516109
228.301483	1114.374756	1440.436646	1227.313354	34.637165
228.681824	1115.105957	1509.004272	1252.219604	34.809402
229.062134	1113.922974	1591.487793	1280.825317	34.948627
229.442413	1115.170410	1669.604736	1312.076538	35.514778
229.822647	1109.901123	1732.429810	1330.035767	35.361366
230.202881	1106.524292	1781.425049	1346.661499	35.581116
230.583054	1106.610229	1816.418457	1355.780884	35.103939
230.963196	1104.696167	1848.357910	1363.932495	34.859440
231.343292	1104.954224	1876.791748	1372.514160	34.665318
231.723404	1103.663696	1890.599731	1375.417725	34.533180
232.103439	1103.018433	1883.308716	1374.256348	34.761154
232.483459	1102.996948	1859.865112	1360.985840	34.086372
232.863434	1102.652710	1820.569824	1347.328247	34.081306
233.243393	1103.534668	1769.531128	1328.766724	33.818806
233.623306	1103.082886	1726.041870	1312.119629	33.555458
234.003174	1107.621094	1700.425781	1305.366089	33.357529
234.383041	1107.298462	1685.112183	1301.946289	33.686951
234.762848	1106.997314	1678.293823	1299.666504	33.724903
235.142639	1108.072754	1668.916382	1299.300781	34.096497
235.522385	1106.739258	1663.324341	1296.655396	34.121674
235.902115	1107.513550	1663.001831	1296.569336	34.034164
236.281799	1106.459717	1673.992310	1299.924561	34.088764
236.661438	1108.266357	1684.789429	1305.280151	34.172752
237.041077	1109.341797	1696.210205	1305.452148	33.416409
237.420654	1109.771973	1703.372314	1306.828491	33.196835
237.800217	1111.019409	1709.674194	1307.947021	32.895020
238.179733	1109.965576	1713.717651	1305.538086	32.392853
238.559219	1110.610840	1719.245239	1303.623901	31.712481
238.938690	1110.374146	1728.042114	1307.559814	31.924217
239.318100	1108.352417	1744.603394	1311.280762	31.894386
239.697510	1107.728638	1762.949707	1316.270508	31.827711
240.076859	1109.040771	1791.447998	1322.722900	31.312994
240.456177	1111.019409	1828.248169	1332.208008	30.839338
240.835464	1109.083740	1878.577026	1347.027100	30.922085
241.214722	1105.642456	1948.692993	1369.309448	31.275349
241.593948	1105.879028	2045.264160	1399.356323	31.241425
241.973129	1104.975586	2163.407959	1433.231445	31.013399
242.352295	1103.964722	2299.984131	1472.892212	30.846279
242.731415	1105.577759	2437.377197	1514.252075	30.685875
243.110519	1106.545654	2551.197754	1545.567871	30.389477
243.489578	1107.685547	2640.972412	1570.861328	30.208031
243.868607	1108.954590	2704.593262	1589.465698	30.114031
244.247604	1107.040405	2749.286865	1603.919189	30.256042
244.626541	1106.137085	2783.979492	1610.672729	30.070503
245.005493	1107.363037	2812.025879	1617.447754	29.922909
245.384369	1111.535645	2835.254639	1622.674194	29.653240
245.763229	1108.976196	2866.355225	1626.115356	29.426729
246.142059	1109.901001	2917.522705	1641.106567	29.386988
246.520859	1110.481689	3011.448242	1667.367920	29.294899
246.899612	1107.707153	3150.024170	1703.178833	29.156672
247.278336	1106.309204	3317.572510	1749.937012	29.106794
247.657043	1106.330688	3471.398193	1791.383179	28.965454
248.035690	1106.137085	3596.596680	1828.119019	28.989908
248.414322	1105.534790	3703.921143	1854.380371	28.819641
248.792908	1104.825073	3784.081787	1878.017578	28.858469
249.171478	1105.061646	3831.851318	1890.556641	28.806587
249.550003	1102.158081	3843.164307	1893.804565	28.881599
249.928482	1102.158203	3801.654053	1887.717651	29.100227
250.306961	1100.996704	3715.320313	1861.262817	29.080795
250.685364	1100.996582	3567.387695	1817.343384	29.044331
251.063782	1102.566650	3382.203857	1766.713379	29.133879
251.442123	1102.824829	3203.773193	1716.750366	29.221355
251.820450	1105.212036	3077.284424	1681.175903	29.206020
252.198761	1103.857300	3009.146973	1655.280396	28.941694
252.576996	1104.566895	2958.043945	1642.074219	28.999945
252.955246	1105.276733	2910.575684	1630.933105	29.117414
253.333420	1103.340942	2869.366455	1621.555786	29.343565
253.711578	1103.383911	2838.244385	1611.317871	29.278088
254.089706	1104.072266	2820.155762	1606.693726	29.288870
254.467804	1106.352173	2801.766357	1603.123413	29.300879
254.845871	1106.502686	2784.409180	1600.606934	29.447662
255.223877	1107.621094	2757.760742	1591.422974	29.318844
255.601898	1107.406006	2719.110840	1578.754639	29.245344
255.979828	1104.029175	2669.427490	1565.075684	29.452345
256.357727	1103.233521	2625.421875	1555.483154	29.710491
256.735657	1104.803589	2602.343994	1548.923096	29.656595
257.113525	1105.685425	2616.797607	1553.719482	29.649292
257.491333	1110.094482	2666.932617	1565.871460	29.275810
257.869110	1112.911987	2739.887695	1587.594482	29.175758
258.246887	1113.793945	2846.051514	1616.953003	29.046434
258.624573	1111.686035	2998.500244	1658.743286	28.993700
259.002289	1110.137573	3210.698975	1716.427734	28.863243
259.379944	1108.137207	3491.164063	1795.899902	28.860888
259.757538	1107.986572	3829.807861	1889.588989	28.716154
260.135162	1112.094727	4167.957031	1983.987915	28.531822
260.512665	1114.224121	4430.354980	2058.491455	28.474972
260.890228	1113.729370	4604.785156	2105.744629	28.415911
261.267700	1112.654053	4711.680176	2130.199463	28.272799
261.645142	1108.266357	4771.945801	2146.136963	28.328642
262.022552	1104.997192	4809.756836	2154.030518	28.315826
262.399994	1102.394653	4815.177246	2152.374268	28.280125
262.777313	1103.792725	4772.375977	2137.146729	28.167658
263.154602	1104.395020	4660.813965	2103.013428	28.079325
263.531921	1107.857666	4471.070313	2050.017578	28.013689
263.909149	1108.287964	4217.984863	1976.266479	27.911999
264.286377	1104.523926	3950.252930	1896.019897	27.813469
264.663574	1103.104370	3746.120850	1838.292480	27.816250
265.040710	1102.330200	3628.600098	1804.202026	27.782930
265.417816	1101.469849	3578.636963	1788.415161	27.731087
265.794891	1102.975464	3585.153809	1786.587036	27.540792
266.171936	1106.696289	3623.459961	1797.319458	27.440922
266.548950	1106.610229	3677.552490	1805.814941	27.196436
266.925934	1106.954468	3735.409180	1822.591431	27.226530
267.302887	1108.567505	3797.868164	1839.905396	27.194351
267.679810	1105.620972	3870.414795	1854.487793	27.085810
268.056671	1106.244629	3946.532227	1873.630005	27.017876
268.433502	1108.524536	4030.349121	1893.847656	26.877831
268.810333	1109.449341	4110.165527	1911.182861	26.718071
269.187073	1108.503052	4182.066895	1927.830200	26.657234
269.563843	1111.578613	4243.815918	1942.434082	26.525942
269.940521	1108.395386	4289.671387	1953.295654	26.558535
270.317200	1105.298218	4349.291016	1965.189575	26.507193
270.693848	1106.180054	4451.948730	1994.354614	26.546204
271.070435	1104.158203	4608.871582	2027.154297	26.335852
271.447021	1101.254761	4783.947266	2067.073486	26.225887
271.823547	1102.717285	4933.234863	2102.303467	26.095329
272.200043	1102.717285	5055.529785	2133.253662	26.070965
272.576538	1101.211792	5159.607422	2160.181641	26.093313
272.952972	1101.297729	5254.608398	2183.410156	26.054214
273.329346	1101.297852	5336.961914	2202.143555	25.989920
273.705688	1099.856689	5394.947754	2217.027344	26.010408
274.082062	1103.878662	5434.350586	2225.071289	25.890774
274.458344	1104.545410	5430.414551	2222.920898	25.853197
274.834595	1104.975586	5373.891113	2204.703125	25.761286
275.210846	1107.062012	5279.556641	2181.754150	25.756586
275.587006	1109.406372	5188.491699	2157.278076	25.688889
275.963165	1107.535156	5131.560547	2143.555908	25.745880
276.339294	1108.223389	5102.933105	2132.264160	25.634924
276.715393	1108.804199	5097.857422	2130.328369	25.608187
277.091461	1108.352417	5095.986328	2126.972900	25.544485
277.467438	1107.363159	5100.395508	2127.940918	25.558966
277.843445	1106.395142	5116.333008	2129.984375	25.526310
278.219452	1103.599121	5136.120605	2137.683838	25.643625
278.595337	1103.642090	5168.790527	2141.426758	25.528826
278.971191	1105.470215	5202.988770	2146.803467	25.413754
279.347046	1102.846191	5224.970215	2149.578369	25.393030
279.722870	1103.512939	5245.789551	2151.857910	25.308426
280.098663	1105.126099	5272.502930	2154.524902	25.181278
280.474396	1104.244263	5315.346680	2166.268311	25.219620
280.850098	1105.577759	5378.472656	2180.184082	25.149374
281.225800	1106.889771	5478.054688	2203.928955	25.097181
281.601440	1108.416870	5604.263672	2231.093750	24.971422
281.977051	1109.771973	5762.928711	2266.431396	24.857521
282.352600	1110.804321	5917.786621	2295.832764	24.652231
282.728149	1108.739502	6036.618652	2324.847412	24.678122
283.103668	1107.104858	6125.898438	2346.032715	24.685770
283.479156	1107.836182	6205.370605	2367.218018	24.705706
283.854553	1106.352173	6286.821777	2390.124023	24.780993
284.229950	1106.266113	6379.285645	2411.029785	24.744146
284.605347	1105.190796	6472.673340	2430.258057	24.686941
284.980652	1102.545288	6548.875488	2447.722656	24.698786
285.355988	1103.169067	6627.101074	2464.456055	24.643442
285.731201	1103.556152	6698.250000	2481.619385	24.631611
286.106445	1102.781982	6752.944824	2496.933105	24.674528
286.481659	1102.846313	6808.629395	2510.719727	24.674500
286.856781	1104.201294	6870.120117	2523.968750	24.623438
287.231934	1105.771362	6928.987793	2538.787598	24.608673
287.607025	1107.169556	6960.324707	2544.594727	24.558125
287.982056	1108.761108	6965.078125	2541.088867	24.457825
288.357086	1108.416870	6943.226074	2534.765625	24.445509
288.732086	1109.750244	6915.803223	2526.678711	24.404333
289.107025	1111.320313	6892.854492	2518.032471	24.331123
289.481934	1108.933105	6867.646484	2509.084961	24.313623
289.856842	1108.954590	6862.871582	2504.568359	24.255020
290.231659	1109.341675	6882.121582	2502.180908	24.127705
290.606506	1108.244751	6897.220215	2506.955811	24.161633
290.981262	1107.900757	6926.707520	2513.364990	24.153822
291.355988	1106.266113	6951.720703	2518.398193	24.157780
291.730713	1105.577759	6984.929688	2529.818848	24.224457
292.105377	1101.792358	7000.609375	2539.110352	24.366207
292.480011	1100.673950	7013.320801	2546.982178	24.461266
292.854614	1098.802734	7021.666016	2557.650146	24.630779
293.229187	1098.308105	7052.701660	2574.103760	24.784986
293.603729	1097.834839	7084.898926	2596.127930	25.025507
293.978241	1098.114502	7114.063965	2620.905029	25.312555
294.352692	1096.200317	7137.701660	2648.801025	25.698921
294.727081	1095.963745	7172.070801	2679.019775	26.053787
295.101501	1097.555298	7206.290527	2710.335693	26.401217
295.475830	1096.996216	7287.849609	2753.394775	26.755577
295.850189	1097.340332	7413.284180	2808.111572	27.086550
296.224457	1100.889038	7610.577637	2881.841064	27.358482
296.598694	1102.416138	7846.520508	2966.862305	27.645571
296.972931	1104.997192	8089.367676	3052.485840	27.883524
297.347107	1104.029297	8281.477539	3127.355469	28.190048
297.721283	1105.556274	8400.868164	3184.200928	28.492880
298.095367	1105.255249	8443.261719	3213.839111	28.735107
298.469452	1107.943848	8421.086914	3223.474365	28.927788
298.843475	1109.987061	8373.726563	3221.043945	29.062950
299.217529	1109.793457	8323.332031	3216.764160	29.208559
299.591492	1111.858276	8247.838867	3205.407959	29.337942
299.965424	1111.492554	8143.653320	3182.888916	29.456047
300.339325	1109.857910	7988.924805	3143.400635	29.561316
300.713196	1107.513550	7790.879395	3091.501465	29.685461
301.087036	1107.319946	7579.626953	3034.956787	29.782839
301.460815	1109.965454	7387.646973	2983.488281	29.844183
301.834564	1109.728882	7243.758301	2936.299316	29.777660
302.208282	1108.029785	7116.881348	2900.359375	29.828156
302.582001	1107.040527	7010.502930	2870.226563	29.866982
302.955658	1106.072632	6917.976074	2844.072754	29.904148
303.329254	1104.287354	6834.223145	2820.758057	29.956196
303.702820	1103.082886	6764.752930	2799.744629	29.967514
304.076416	1102.953857	6701.927734	2780.172363	29.955820
304.449921	1105.104614	6637.296387	2762.643555	29.961704
304.823395	1106.051025	6586.451172	2744.985107	29.905371
305.196838	1106.567261	6530.292480	2730.768555	29.946232
305.570251	1106.481201	6469.038574	2710.701172	29.915203
305.943604	1106.223145	6403.201660	2690.117920	29.901854
306.316986	1110.094604	6367.820801	2678.783447	29.835880
306.690277	1108.868652	6345.474609	2668.545654	29.784121
307.063507	1108.373901	6343.840332	2667.577881	29.781569
307.436768	1109.449341	6365.262207	2673.772217	29.763670
307.809937	1110.653809	6409.956055	2681.665771	29.645638
308.183136	1111.298950	6479.620117	2695.624512	29.512495
308.556244	1108.223511	6569.566895	2718.465820	29.484364
308.929321	1107.664185	6653.534180	2742.748535	29.482918
309.302399	1105.943481	6743.825195	2765.719238	29.439705
309.675446	1106.309082	6841.664551	2793.356934	29.414879
310.048401	1106.911377	6937.526367	2823.296143	29.437456
310.421356	1103.190552	7031.215820	2849.708008	29.462044
310.794281	1103.706543	7135.378418	2880.894775	29.464272
311.167145	1103.620728	7231.713867	2905.370850	29.401480
311.539978	1103.448608	7308.023926	2923.416016	29.332668
311.912781	1100.932129	7343.147949	2936.944824	29.412836
312.285553	1101.641846	7331.144043	2933.503174	29.406225
312.658295	1102.480591	7282.859375	2918.963867	29.391130
313.031006	1104.846558	7225.992188	2904.467285	29.400064
313.403656	1103.190308	7173.060547	2887.303711	29.392942
313.776276	1101.985962	7139.852051	2874.313232	29.353537
314.148865	1102.394653	7134.390137	2868.161865	29.273350
314.521454	1101.168701	7136.002930	2866.849854	29.258156
314.893982	1099.577148	7119.096680	2860.784668	29.258274
315.266449	1100.523438	7070.789551	2847.965820	29.269087
315.638885	1099.770752	7000.157715	2827.124756	29.275269
316.011322	1101.728027	6926.600098	2804.691650	29.236069
316.383667	1100.394409	6864.806641	2789.291992	29.298697
316.756042	1104.696045	6818.005859	2772.666260	29.194466
317.128326	1104.265869	6778.517578	2758.578613	29.154728
317.500610	1107.233887	6732.468750	2743.716553	29.091810
317.872833	1106.760864	6660.287598	2720.487793	29.057695
318.245087	1106.717773	6574.492188	2696.076172	29.067739
318.617218	1108.180298	6490.954590	2673.256104	29.075634
318.989319	1109.513794	6426.925293	2653.404053	29.034620
319.361420	1108.847046	6388.383301	2640.155273	29.004599
319.733490	1109.040527	6360.379883	2632.670166	29.014114
320.105530	1109.535278	6337.150391	2623.185059	28.954882
320.477509	1108.588867	6314.438965	2614.904541	28.935057
320.849457	1103.577515	6289.725098	2610.861084	29.063646
321.221375	1102.846313	6273.335938	2605.419678	29.060562
321.593231	1101.125732	6265.291992	2600.128906	29.027014
321.965088	1098.308105	6269.142090	2596.881104	28.981262
322.336884	1096.437012	6281.552734	2598.859863	28.975685
322.708618	1097.146729	6312.072266	2604.280029	28.900379
323.080414	1096.652100	6366.401855	2615.743408	28.826630
323.452118	1094.565674	6457.295410	2638.348389	28.787256
323.823761	1091.855713	6583.870117	2673.470947	28.798452
324.195343	1090.070557	6713.713867	2711.755127	28.836903
324.566925	1091.554565	6843.923340	2747.049805	28.779366
324.938507	1092.500977	6965.335938	2779.398193	28.723730
325.310059	1092.974121	7070.747070	2809.229492	28.710615
325.681519	1093.554810	7176.157715	2840.846436	28.726051
326.052948	1097.921021	7269.933105	2872.119385	28.745867
326.424408	1098.007202	7340.715820	2889.067871	28.690443
326.795776	1097.727417	7364.848145	2891.412109	28.620554
327.167084	1098.566284	7339.898926	2884.336182	28.611998
327.538391	1102.287109	7270.729492	2864.441162	28.567245
327.909668	1105.491821	7175.964355	2830.931396	28.423479
328.280884	1107.578125	7081.910645	2802.261230	28.366066
328.652100	1109.169800	6998.222168	2778.279785	28.342590
329.023254	1111.879761	6936.085449	2758.470947	28.271515
329.394348	1110.417114	6876.121582	2740.662354	28.274866
329.765442	1109.062134	6803.187500	2719.433594	28.281279
330.136475	1108.352417	6736.382813	2698.183838	28.248451
330.507538	1109.384644	6665.556641	2679.127930	28.252245
330.878479	1109.083618	6619.228516	2664.244385	28.223591
331.249420	1109.836426	6594.365234	2658.802490	28.242464
331.620331	1109.363281	6598.559570	2658.049805	28.213356
331.991211	1109.556763	6614.367676	2663.749512	28.233353
332.362030	1104.631592	6648.609375	2671.814941	28.268213
332.732819	1101.383911	6686.248047	2681.816406	28.298494
333.103577	1099.964233	6714.616699	2694.785645	28.404633
333.474304	1102.201050	6744.190430	2702.851318	28.370317
333.845001	1103.792725	6763.806152	2709.196045	28.363947
334.215668	1102.351685	6780.667480	2715.583740	28.410397
334.586273	1101.362305	6802.648926	2723.412598	28.450602
334.956818	1102.910767	6819.038574	2733.327881	28.523104
335.327362	1102.631226	6843.492676	2739.135010	28.506241
335.697876	1103.427002	6852.806152	2746.340332	28.575493
336.068329	1102.545166	6861.108887	2753.179932	28.664001
336.438751	1105.900391	6856.420410	2756.320068	28.700356
336.809174	1110.997925	6857.625000	2755.631836	28.619118
337.179504	1110.395752	6867.883301	2757.739502	28.612200
337.549896	1110.739868	6894.811035	2765.632813	28.611214
337.920135	1109.750488	6938.881348	2777.870850	28.616966
338.290375	1111.643066	6985.682617	2787.592773	28.531467
338.660614	1112.567871	7031.601563	2802.949219	28.558401
339.030792	1111.707764	7072.187500	2812.649658	28.536997
339.400940	1111.083984	7105.461426	2826.135010	28.610994
339.771027	1109.341675	7136.647949	2831.146484	28.566738
340.141083	1110.976318	7170.501465	2841.943604	28.566053
340.511139	1111.815308	7208.527832	2851.148682	28.529037
340.881134	1107.190918	7245.671875	2866.505615	28.660425
341.251068	1106.653198	7272.943848	2871.129883	28.614882
341.621002	1104.072266	7289.419922	2878.033936	28.680063
341.990875	1103.878662	7297.398926	2882.077637	28.710634
342.360718	1103.943237	7304.431641	2892.466064	28.844872
342.730560	1105.642456	7327.487793	2898.187256	28.810501
343.100311	1106.631836	7369.987793	2913.887695	28.854433
343.470032	1106.911499	7429.909668	2930.771729	28.844864
343.839752	1107.255615	7508.500000	2958.474121	28.919668
344.209442	1105.319824	7596.145020	2982.821289	28.925467
344.579041	1104.050903	7693.920410	3012.394531	28.958746
344.948639	1105.685425	7780.275391	3036.785156	28.932112
345.318176	1106.201660	7865.125000	3065.197021	28.983837
345.687714	1106.782349	7949.564453	3091.114014	28.998901
346.057190	1106.416748	8022.046875	3113.804932	29.026831
346.426636	1105.061646	8068.547363	3127.290771	29.040472
346.796051	1102.996948	8086.076660	3135.764893	29.109907
347.165405	1101.362427	8073.623535	3132.753906	29.135332
347.534729	1100.652710	8034.264160	3121.547852	29.146357
347.904083	1100.007324	7972.708008	3104.707031	29.169024
348.273315	1102.287109	7897.063965	3083.801514	29.162317
348.642517	1102.286987	7822.968750	3064.078369	29.190363
349.011719	1101.641724	7757.713867	3049.388428	29.262703
349.380890	1101.878418	7711.687012	3041.064941	29.338013
349.749969	1103.061401	7674.155762	3035.085693	29.401865
350.119049	1104.868164	7654.217285	3032.805664	29.437086
350.488098	1106.481201	7655.551270	3033.064209	29.417656
350.857117	1107.621216	7670.198242	3039.193848	29.433142
351.226074	1110.073120	7699.664063	3050.808350	29.451529
351.595001	1110.610840	7740.421875	3065.735107	29.489895
351.963867	1110.180542	7791.288574	3084.425537	29.549665
352.332764	1108.395386	7853.146484	3106.470947	29.624157
352.701538	1108.933105	7917.110840	3130.086670	29.687145
353.070343	1107.255371	8003.551758	3153.530518	29.672089
353.439056	1105.836060	8092.981445	3177.340088	29.647356
353.807770	1105.147583	8187.166016	3208.569580	29.700880
354.176453	1105.685425	8283.155273	3238.810059	29.719728
354.545105	1101.942993	8397.578125	3276.599854	29.807640
354.913666	1101.211792	8531.207031	3317.400146	29.827589
355.282227	1098.157593	8684.582031	3364.051514	29.867746
355.650757	1097.189697	8833.481445	3414.616455	29.955265
356.019226	1099.125488	8996.340820	3467.504639	29.990053
356.387695	1100.437500	9182.535156	3525.684326	30.007641
356.756104	1100.867676	9411.251953	3598.467285	30.053959
357.124451	1103.319580	9663.155273	3679.961182	30.101530
357.492828	1102.566772	9899.399414	3759.820557	30.206938
357.861084	1103.276489	10098.499023	3819.204102	30.193003
358.229401	1102.846191	10256.109375	3870.328857	30.234928
358.597595	1104.179810	10363.456055	3907.043213	30.270868
358.965759	1103.857300	10459.769531	3941.541992	30.330389
359.333923	1104.308960	10550.339844	3977.868896	30.420818
359.702057	1107.836182	10690.334961	4027.252197	30.466124
360.070129	1108.094360	10860.077148	4079.946289	30.474339
360.438141	1106.545654	11058.403320	4144.104980	30.522537
360.806122	1108.890137	11282.582031	4216.135742	30.541967
361.174133	1109.019043	11550.722656	4304.920410	30.607088
361.542053	1110.739746	11830.155273	4396.329590	30.650829
361.909912	1108.890137	12083.261719	4482.598633	30.741703
362.277771	1109.470825	12281.199219	4551.961914	30.814312
362.645599	1112.567993	12406.440430	4594.397461	30.829370
363.013367	1111.922852	12446.811523	4611.345215	30.873020
363.381134	1112.309814	12429.625977	4611.388672	30.917921
363.748810	1109.148193	12337.292969	4581.169922	30.922489
364.116455	1108.545898	12161.850586	4534.411133	30.994036
364.484100	1107.857544	11911.327148	4463.069336	31.056799
364.851715	1106.438110	11564.336914	4359.077637	31.102230
365.219238	1106.330688	11116.797852	4226.179199	31.165865
365.586761	1108.610596	10644.007813	4080.182861	31.163591
365.954224	1110.374146	10229.397461	3954.317871	31.186934
366.321686	1110.395752	9906.173828	3851.767822	31.166906
366.689117	1108.954590	9687.071289	3793.308594	31.293045
367.056458	1109.642822	9550.624023	3751.153076	31.293877
367.423737	1108.847168	9436.072266	3711.212646	31.251295
367.791077	1109.987061	9330.467773	3684.499756	31.318275
368.158295	1109.277344	9255.921875	3658.087646	31.286627
368.525543	1110.782959	9182.815430	3633.869385	31.257139
368.892700	1108.890137	9119.925781	3615.178955	31.285454
369.259827	1105.685425	9063.208984	3596.467041	31.300966
369.626953	1100.996582	9032.152344	3586.767090	31.341845
369.994019	1098.523315	9003.932617	3573.475098	31.307066
370.361053	1098.544800	8992.319336	3574.614990	31.367382
370.728027	1098.566284	9000.920898	3573.689941	31.321342
371.094971	1098.200684	9007.116211	3577.238525	31.344852
371.461914	1097.942505	9032.130859	3591.584961	31.429081
371.828796	1096.931641	9066.628906	3601.757813	31.429377
372.195618	1096.910034	9099.794922	3619.501709	31.521030
372.562408	1097.942383	9130.400391	3636.472412	31.603403
372.929199	1098.845703	9166.985352	3650.882813	31.631048
373.295898	1100.372803	9202.795898	3667.702148	31.685946
373.662598	1102.437622	9240.972656	3684.047852	31.720823
374.029236	1105.534790	9269.858398	3702.996338	31.814777
374.395844	1102.179565	9303.324219	3716.288330	31.874928
374.762421	1101.190186	9331.479492	3727.042725	31.904743
375.128967	1102.996826	9382.688477	3746.486084	31.927389
375.495483	1103.921753	9458.161133	3776.941406	31.995966
375.861908	1105.061646	9573.099609	3817.182861	32.027737
376.228333	1106.373657	9735.420898	3872.609131	32.057251
376.594727	1104.954224	9951.856445	3947.951660	32.135513
376.961090	1103.771362	10193.457031	4033.209473	32.228157
377.327393	1106.373779	10423.506836	4114.036621	32.280991
377.693665	1108.503052	10601.615234	4183.421387	32.391048
378.059906	1106.567261	10739.804688	4233.062012	32.455284
378.426086	1106.094238	10820.609375	4265.216797	32.519611
378.792267	1107.707153	10859.777344	4290.080078	32.632793
379.158386	1108.373901	10854.506836	4299.220703	32.739616
379.524445	1109.771851	10825.342773	4297.629395	32.811836
379.890503	1110.008423	10760.688477	4287.240234	32.922363
380.256531	1108.201782	10656.246094	4264.376953	33.055725
380.622467	1108.588989	10504.075195	4223.297363	33.151115
380.988403	1110.460083	10320.676758	4172.129883	33.242104
381.354279	1108.029785	10149.300781	4124.338867	33.361557
381.720154	1109.642944	10012.982422	4083.667725	33.403477
382.085968	1110.116089	9927.724609	4065.106201	33.512379
382.451752	1111.385010	9885.675781	4063.901611	33.649632
382.817474	1110.417114	9900.688477	4080.505615	33.788357
383.183197	1108.244873	9955.663086	4115.843262	33.994080
383.548859	1107.707031	10022.509766	4146.276855	34.084545
383.914490	1107.685547	10095.939453	4183.099121	34.215919
384.280060	1106.416504	10161.324219	4219.318848	34.378067
384.645599	1106.352051	10229.569336	4260.591797	34.573769
385.011108	1106.093994	10300.351563	4303.522949	34.776367
385.376617	1107.685669	10384.232422	4349.571289	34.947117
385.742035	1104.846680	10474.286133	4401.556641	35.185776
386.107452	1104.954224	10567.115234	4454.530762	35.399700
386.472778	1106.330811	10662.116211	4509.763184	35.616459
386.838135	1104.932617	10749.223633	4563.468750	35.860970
387.203430	1106.459595	10808.714844	4600.569824	36.013386
387.568634	1105.448730	10854.484375	4637.520508	36.229961
387.933838	1104.997070	10884.187500	4670.965820	36.464867
388.299042	1109.621338	10910.061523	4703.658203	36.672199
388.664124	1109.470825	10930.428711	4732.586426	36.891674
389.029236	1108.330933	10948.539063	4758.525391	37.094688
389.394318	1108.180420	10954.991211	4784.227539	37.332363
389.759308	1110.094604	10969.187500	4813.994141	37.568359
390.124298	1109.019165	11002.416992	4849.009277	37.802891
390.489227	1108.481445	11079.329102	4897.145020	37.997406
390.854126	1109.965576	11182.459961	4961.324707	38.236401
391.218964	1108.266235	11322.348633	5043.248535	38.525070
391.583771	1108.610352	11460.817383	5128.613770	38.832333
391.948578	1109.513672	11593.177734	5205.848633	39.073505
392.313354	1105.448730	11693.167969	5270.803223	39.341377
392.678040	1105.749878	11787.826172	5332.445313	39.568108
393.042694	1106.136963	11888.741211	5400.066895	39.822750
393.407349	1104.265869	12004.368164	5476.872070	40.115276
393.771942	1100.867676	12131.159180	5558.000488	40.408115
394.136505	1098.501709	12232.075195	5623.686035	40.644493
394.501007	1098.867310	12250.872070	5665.153320	40.945877
394.865479	1097.447754	12193.532227	5667.498047	41.186153
395.229919	1097.899536	12070.162109	5647.839355	41.467655
395.594360	1096.781006	11929.284180	5619.663574	41.752888
395.958710	1094.995850	11782.621094	5595.531738	42.109787
396.323029	1097.146606	11664.046875	5569.120605	42.320587
396.687286	1099.168457	11547.215820	5550.795410	42.607265
397.051544	1100.695435	11433.180664	5530.642578	42.873978
397.415771	1103.276489	11292.905273	5500.337891	43.152321
397.779938	1103.513062	11135.983398	5459.127930	43.415176
398.144043	1106.416626	10975.725586	5426.048828	43.768337
398.508148	1105.749878	10846.719727	5398.733887	44.071423
398.872192	1106.567261	10745.933594	5385.957520	44.394932
399.236237	1106.610229	10670.699219	5382.473145	44.707478
399.600189	1109.083740	10616.691406	5388.688965	45.012432
399.964111	1109.750488	10582.794922	5397.077148	45.258167
400.328003	1108.825684	10557.092773	5416.865234	45.596081
400.691925	1106.674805	10548.381836	5436.501953	45.858521
401.055695	1104.696167	10535.284180	5459.515625	46.177601
401.419495	1105.147583	10541.952148	5485.066895	46.413162
401.783234	1104.093750	10567.309570	5521.135742	46.675907
402.146942	1104.373413	10580.084961	5553.978027	46.957996
402.510620	1104.695923	10615.229492	5602.177734	47.289482
402.874237	1104.588379	10673.751953	5660.507813	47.610424
403.237823	1105.857544	10771.420898	5730.688477	47.848541
403.601379	1103.771240	10901.070313	5817.925293	48.116879
403.964874	1101.878418	11061.736328	5917.099121	48.346283
404.328369	1102.330078	11225.068359	6022.853516	48.608620
404.691772	1101.469727	11383.733398	6128.501465	48.890320
405.055176	1101.641846	11540.247070	6229.245117	49.121536
405.418549	1100.953613	11671.446289	6317.943848	49.354279
405.781860	1102.953857	11765.910156	6388.942383	49.573383
406.145142	1102.351685	11848.887695	6455.229980	49.810268
406.508362	1100.157837	11897.194336	6499.773438	50.010166
406.871552	1099.598755	11914.058594	6527.733887	50.193310
407.234741	1097.899536	11892.678711	6541.757324	50.430470
407.597870	1098.458740	11837.294922	6536.702637	50.640907
407.960938	1099.405029	11763.157227	6525.390137	50.882515
408.323975	1100.501953	11688.825195	6510.806641	51.096897
408.686981	1100.760132	11624.300781	6496.891113	51.276760
409.049957	1101.512817	11579.477539	6503.320801	51.553982
409.412903	1100.910645	11579.994141	6529.948730	51.808327
409.775787	1103.556152	11608.556641	6571.223145	52.048233
410.138611	1106.072510	11650.669922	6618.820313	52.280308
410.501434	1110.524658	11708.204102	6670.869141	52.467567
410.864227	1112.223755	11746.896484	6719.111328	52.722710
411.226929	1112.632446	11788.665039	6767.784668	52.970543
411.589630	1113.428223	11822.755859	6808.392090	53.177601
411.952271	1116.310425	11847.897461	6839.363770	53.329048
412.314911	1116.159790	11863.900391	6865.689453	53.495243
412.677490	1115.729614	11876.655273	6894.187500	53.698521
413.040009	1115.578979	11886.268555	6907.973633	53.779236
413.402496	1115.191895	11866.609375	6909.910645	53.897251
413.764984	1113.428223	11834.455078	6908.877930	54.056850
414.127380	1110.933472	11824.604492	6908.898926	54.117447
414.489777	1110.008667	11831.379883	6919.373535	54.184906
414.852112	1110.116089	11869.363281	6943.139160	54.214043
415.214386	1106.997559	11936.662109	6978.842285	54.220009
415.576660	1106.674805	12035.340820	7031.409180	54.212788
415.938904	1104.545532	12165.206055	7104.557617	54.246422
416.301086	1103.921753	12317.656250	7190.589355	54.278683
416.663208	1106.352051	12495.719727	7279.718750	54.202896
417.025299	1104.523926	12692.347656	7389.884277	54.241074
417.387390	1107.126465	12916.933594	7510.372070	54.219734
417.749420	1107.664185	13195.377930	7658.949707	54.197887
418.111389	1109.148193	13496.941406	7826.539063	54.225887
418.473328	1108.997559	13833.950195	8008.970703	54.223957
418.835266	1109.944092	14205.543945	8214.221680	54.249348
419.197144	1114.912354	14599.657227	8442.981445	54.343403
419.558960	1115.729614	15034.377930	8689.334961	54.413368
419.920746	1115.751099	15511.663086	8968.788086	54.550465
420.282471	1115.665039	16074.227539	9288.978516	54.639698
420.644226	1116.654541	16642.363281	9629.644531	54.831570
421.005920	1117.450317	17200.044922	9956.502930	54.960365
421.367523	1115.062988	17704.322266	10267.057617	55.168190
421.729126	1114.869263	18129.578125	10541.285156	55.401569
422.090668	1112.740112	18508.529297	10788.606445	55.621887
422.452179	1112.288330	18812.931641	11002.804688	55.876595
422.813660	1110.911865	19112.841797	11213.519531	56.119579
423.175110	1108.373901	19411.007813	11412.167969	56.296780
423.536469	1108.503052	19655.835938	11605.524414	56.595856
423.897858	1107.212646	19856.054688	11768.985352	56.866299
424.259155	1106.825317	19930.041016	11858.910156	57.121407
424.620453	1101.190308	19945.248047	11912.142578	57.370613
424.981689	1101.878418	19900.576172	11937.113281	57.638218
425.342865	1102.588257	19849.298828	11941.717773	57.818836
425.704041	1101.684937	19768.105469	11932.790039	58.024548
426.065186	1102.459106	19672.716797	11907.001953	58.181976
426.426239	1101.835449	19546.292969	11863.555664	58.346638
426.787262	1102.222656	19328.652344	11763.241211	58.492085
427.148254	1102.932251	19028.789063	11620.407227	58.672085
427.509216	1101.684692	18694.187500	11441.416992	58.773518
427.870178	1102.523560	18279.685547	11210.054688	58.842846
428.231049	1101.727905	17872.582031	10986.391602	58.939541
428.591858	1106.567261	17488.619141	10768.988281	58.981750
428.952698	1105.642456	17118.486328	10559.910156	59.041779
429.313446	1104.760620	16761.517578	10362.165039	59.127216
429.674164	1105.470337	16456.294922	10173.991211	59.075138
430.034851	1106.653442	16158.281250	10006.055664	59.125847
430.395477	1107.341553	15906.465820	9857.478516	59.126045
430.756104	1105.642456	15714.184570	9744.540039	59.135933
431.116699	1106.395142	15553.583984	9649.949219	59.136444
431.477203	1103.878784	15418.663086	9572.089844	59.157097
431.837646	1104.652954	15357.708984	9545.742188	59.223011
432.198090	1104.739136	15337.406250	9544.925781	59.301510
432.558502	1103.749634	15340.266602	9566.498047	59.443951
432.918884	1105.083130	15371.237305	9601.534180	59.556702
433.279205	1104.953979	15433.438477	9660.250977	59.708317
433.639465	1104.652954	15494.156250	9723.613281	59.897552
433.999756	1103.168823	15573.284180	9794.870117	60.066566
434.359924	1102.738770	15652.305664	9868.770508	60.249432
434.720093	1104.566895	15715.709961	9942.350586	60.486599
435.080200	1103.814087	15769.545898	10013.111328	60.749081
435.440277	1107.449097	15820.327148	10083.097656	61.005390
435.800354	1107.406128	15854.137695	10150.053711	61.319672
436.160370	1108.546021	15863.386719	10198.532227	61.606808
436.520325	1107.126465	15868.397461	10244.258789	61.899361
436.880249	1105.491821	15869.772461	10285.961914	62.180271
437.240112	1104.007690	15877.494141	10332.009766	62.463264
437.599976	1102.609741	15923.329102	10409.761719	62.798248
437.959808	1105.384277	15984.863281	10497.471680	63.121082
438.319519	1104.222778	16061.215820	10595.333984	63.456013
438.679260	1102.717285	16173.660156	10707.864258	63.732883
439.038940	1104.072144	16327.722656	10860.506836	64.087357
439.398590	1103.577515	16530.156250	11045.454102	64.446411
439.758179	1101.727905	16789.457031	11246.016602	64.663841
440.117767	1101.813965	17104.636719	11496.994141	64.958412
440.477295	1102.674316	17428.570313	11753.133789	65.236595
440.836792	1104.480957	17747.060547	12007.208984	65.511047
441.196198	1106.094116	18022.835938	12235.946289	65.791939
441.555603	1106.266113	18234.710938	12409.343750	65.990097
441.914978	1105.362793	18377.330078	12545.725586	66.236595
442.274323	1105.814575	18473.687500	12657.655273	66.512695
442.633575	1104.825195	18531.974609	12740.459961	66.767288
442.992859	1102.566772	18534.320313	12779.454102	66.986305
443.352051	1100.308350	18492.572266	12772.078125	67.108971
443.711182	1102.029053	18390.644531	12735.622070	67.290482
444.070313	1100.975098	18259.791016	12674.603516	67.450043
444.429382	1101.641968	18114.310547	12608.272461	67.635666
444.788452	1101.297729	18022.427734	12577.538086	67.821945
445.147430	1099.921265	18001.091797	12586.377930	67.962494
445.506409	1099.405151	18036.513672	12646.255859	68.174858
445.865295	1098.136108	18160.464844	12746.977539	68.272285
446.224182	1099.405029	18370.490234	12900.910156	68.330994
446.583038	1100.588013	18611.101563	13082.718750	68.428207
446.941833	1100.846069	18869.736328	13278.828125	68.535416
447.300598	1100.394409	19118.605469	13475.778320	68.682648
447.659302	1098.178955	19323.125000	13645.712891	68.848129
448.018005	1100.050171	19471.550781	13775.450195	68.994911
448.376648	1099.082397	19577.027344	13869.803711	69.113319
448.735229	1101.061157	19592.533203	13903.702148	69.235374
449.093781	1100.846191	19539.453125	13892.022461	69.371704
449.452301	1102.330200	19427.289063	13827.756836	69.443138
449.810791	1103.255005	19245.503906	13726.431641	69.578903
450.169220	1102.889404	18963.898438	13560.582031	69.747971
450.527618	1102.502197	18669.667969	13374.042969	69.854980
450.885956	1102.803223	18396.730469	13192.816406	69.909012
451.244263	1103.082886	18132.847656	13020.860352	69.982040
451.602539	1103.104492	17917.898438	12891.791016	70.109016
451.960785	1101.469849	17751.490234	12779.303711	70.137062
452.318970	1104.674683	17618.054688	12699.875000	70.216995
452.677124	1103.534668	17493.501953	12616.230469	70.242332
453.035248	1103.513184	17355.742188	12525.293945	70.278244
453.393311	1105.319824	17210.777344	12438.896484	70.371033
453.751312	1106.739380	17061.273438	12344.259766	70.434654
454.109314	1106.588745	16932.162109	12257.647461	70.462273
454.467285	1106.223145	16796.466797	12172.991211	70.532791
454.825195	1106.502686	16644.642578	12075.022461	70.590942
455.183044	1106.158569	16490.300781	11974.666016	70.647469
455.540894	1107.771729	16312.581055	11845.101563	70.617981
455.898651	1106.588745	16140.602539	11735.582031	70.699638
456.256378	1105.298340	15975.097656	11612.083984	70.658554
456.614105	1103.577637	15849.490234	11529.600586	70.704498
456.971771	1105.513306	15780.019531	11481.895508	70.710266
457.329407	1103.276489	15769.350586	11482.454102	70.769981
457.686981	1101.104126	15827.056641	11531.793945	70.832024
458.044525	1101.383667	15996.025391	11652.969727	70.841492
458.402008	1101.469849	16249.238281	11849.489258	70.954475
458.759460	1101.899902	16633.072266	12136.858398	71.050392
459.116913	1103.900269	17143.347656	12506.453125	71.090683
459.474274	1101.964600	17748.671875	12942.722656	71.129730
459.831635	1102.674316	18318.248047	13348.922852	71.134705
460.188904	1100.114868	18817.556641	13713.290039	71.190727
460.546173	1100.200928	19216.060547	14007.327148	71.247658
460.903381	1099.620117	19511.148438	14234.343750	71.339676
461.260559	1098.781372	19718.873047	14390.062500	71.381393
461.617706	1098.738281	19844.222656	14491.171875	71.443520
461.974762	1099.835205	19816.476563	14479.212891	71.483864
462.331848	1099.899658	19682.394531	14378.511719	71.457642
462.688843	1098.222046	19383.757813	14163.045898	71.448959
463.045837	1097.189575	18940.044922	13854.040039	71.495567
463.402740	1099.619995	18391.591797	13476.508789	71.575920
463.759613	1100.437378	17865.740234	13122.055664	71.705345
464.116486	1100.738403	17398.607422	12796.681641	71.763634
464.473267	1101.319092	17029.548828	12541.231445	71.821617
464.830048	1102.480591	16737.945313	12339.722656	71.870216
465.186737	1104.695801	16506.689453	12168.282227	71.832169
465.543457	1105.470215	16337.313477	12041.793945	71.799080
465.900085	1103.663574	16282.833984	12010.714844	71.855385
466.256683	1104.244263	16292.621094	12036.202148	71.975815
466.613251	1104.480957	16357.274414	12097.262695	72.070610
466.969757	1106.029419	16439.476563	12166.819336	72.135048
467.326233	1105.319824	16510.820313	12220.761719	72.152420
467.682678	1107.234009	16560.052734	12252.269531	72.122993
468.039093	1108.546021	16580.548828	12275.284180	72.173836
468.395416	1108.201904	16570.224609	12269.369141	72.184395
468.751740	1106.889893	16553.146484	12260.680664	72.210320
469.108032	1106.975830	16523.464844	12255.647461	72.316544
469.464233	1107.255493	16484.578125	12241.709961	72.408279
469.820435	1108.674927	16407.945313	12193.295898	72.451958
470.176575	1110.202026	16285.781250	12096.187500	72.392525
470.532715	1111.686035	16129.696289	11984.625000	72.399338
470.888763	1112.116333	15987.184570	11887.085938	72.436440
471.244751	1113.492798	15888.291016	11822.498047	72.481567
471.600769	1112.610962	15828.303711	11788.084961	72.544830
471.956696	1113.837036	15821.293945	11800.323242	72.660324
472.312592	1114.503784	15883.688477	11860.438477	72.759163
472.668457	1114.460815	15968.472656	11939.480469	72.876068
473.024292	1114.611206	16080.165039	12031.405273	72.946144
473.380035	1113.836914	16152.497070	12105.542969	73.089661
473.735779	1113.428223	16223.559570	12171.402344	73.182518
474.091492	1111.406372	16299.697266	12245.925781	73.309891
474.447113	1108.481323	16406.613281	12340.777344	73.422661
474.802765	1107.470581	16513.466797	12433.259766	73.515465
475.158295	1106.330566	16627.951172	12533.940430	73.623810
475.513824	1104.351929	16748.632813	12642.296875	73.751839
475.869324	1104.115356	16876.734375	12744.031250	73.798241
476.224762	1104.416382	16990.210938	12840.127930	73.875511
476.580170	1104.351929	17126.080078	12954.487305	73.962906
476.935516	1103.749756	17276.789063	13074.543945	74.016975
477.290863	1103.169067	17498.664063	13244.953125	74.055618
477.646118	1103.061401	17727.509766	13441.363281	74.217804
478.001373	1104.395020	17985.345703	13653.477539	74.338715
478.356537	1106.825317	18247.376953	13866.191406	74.439651
478.711700	1108.008301	18524.294922	14082.346680	74.495430
479.066833	1107.535034	18798.650391	14303.558594	74.591248
479.421875	1108.481445	19090.105469	14532.509766	74.654144
479.776917	1107.083496	19404.767578	14787.143555	74.763893
480.131897	1108.201904	19747.414063	15070.727539	74.909416
480.486847	1108.481445	20138.667969	15386.378906	75.027626
480.841766	1107.255493	20624.296875	15770.384766	75.129875
481.196594	1108.395508	21200.820313	16225.387695	75.237267
481.551453	1107.169556	21940.115234	16803.437500	75.343491
481.906219	1105.685425	22896.210938	17557.357422	75.499199
482.260986	1107.363159	24232.376953	18615.146484	75.709290
482.615662	1107.449097	26140.806641	20132.279297	75.997917
482.970306	1106.868408	28737.750000	22234.992188	76.465614
483.324951	1106.201660	31746.945313	24800.900391	77.330688
483.679504	1106.545776	34837.628906	27490.093750	78.217323
484.034027	1103.448608	37693.785156	29925.082031	78.768433
484.388519	1102.502197	40153.171875	31965.550781	79.033340
484.742981	1103.728149	42112.316406	33598.660156	79.239326
485.097351	1101.469849	43613.167969	34847.761719	79.381187
485.451721	1103.340942	44699.816406	35782.003906	79.544647
485.806030	1104.136841	45443.222656	36450.839844	79.719063
486.160309	1102.502075	45882.390625	36888.679688	79.915733
486.514557	1100.351440	45884.199219	37003.785156	80.170494
486.868744	1102.717285	45417.625000	36701.386719	80.331139
487.222931	1103.405518	44580.058594	36004.828125	80.276237
487.577026	1103.082886	43572.601563	35119.191406	80.095345
487.931122	1105.513306	42634.746094	34358.453125	80.071167
488.285126	1107.943726	41781.023438	33733.621094	80.214432
488.639099	1107.922241	41036.996094	33229.515625	80.446625
488.993042	1107.384644	40419.503906	32838.542969	80.715965
489.346954	1105.578003	39883.546875	32490.650391	80.935318
489.700836	1105.233765	39383.351563	32172.113281	81.160934
490.054626	1106.287598	38821.929688	31807.207031	81.401031
490.408417	1107.750122	38300.144531	31478.373047	81.658157
490.762146	1105.900513	37821.589844	31203.029297	81.973488
491.115814	1104.265869	37457.500000	31029.929688	82.319122
491.469513	1104.523926	37116.941406	30878.105469	82.675873
491.823090	1103.018433	36680.972656	30626.787109	82.983330
492.176666	1101.512817	36209.734375	30351.505859	83.313797
492.530182	1100.394409	35745.246094	30068.867188	83.615517
492.883698	1102.416138	35244.714844	29754.417969	83.919373
493.237091	1102.975342	34703.437500	29401.966797	84.222038
493.590515	1101.813965	34062.304688	28964.406250	84.533302
493.943878	1099.706177	33276.421875	28388.810547	84.810097
494.297150	1099.125488	32215.968750	27569.417969	85.067413
494.650452	1101.039673	30864.232422	26510.792969	85.373077
495.003662	1102.029053	29264.033203	25207.789063	85.596748
495.356873	1102.373169	27692.054688	23933.007813	85.862762
495.710022	1102.996948	26369.289063	22872.597656	86.160645
496.063110	1103.642212	25355.443359	22079.017578	86.489967
496.416168	1103.147461	24639.269531	21533.314453	86.803459
496.769165	1104.954224	24163.982422	21181.183594	87.064507
497.122162	1106.739380	23866.482422	20992.384766	87.372009
497.475098	1108.546021	23682.890625	20894.587891	87.648354
497.828003	1110.116089	23611.398438	20884.177734	87.879707
498.180847	1113.492676	23576.253906	20900.740234	88.089119
498.533661	1111.470947	23520.783203	20901.062500	88.309677
498.886444	1110.008545	23454.603516	20892.544922	88.533875
499.239136	1108.137207	23350.849609	20829.031250	88.662270
499.591827	1108.309448	23151.341797	20697.898438	88.869759
499.944427	1106.911377	22863.435547	20482.107422	89.054649
500.297089	1107.255493	22542.361328	20222.054688	89.175201
500.649628	1106.051025	22189.027344	19941.289063	89.338608
501.002136	1102.846436	21837.843750	19649.273438	89.445045
501.354584	1103.147461	21511.783203	19391.498047	89.610847
501.707001	1102.201172	21173.849609	19123.703125	89.785858
502.059387	1099.383545	20893.191406	18902.687500	89.943802
502.411682	1101.448364	20655.591797	18689.736328	89.946602
502.764038	1102.609619	20481.121094	18554.085938	90.055817
503.116302	1102.975464	20345.273438	18452.587891	90.163933
503.468475	1101.942871	20269.974609	18392.839844	90.206947
503.820709	1102.222534	20235.583984	18376.212891	90.282043
504.172852	1102.007446	20195.921875	18366.597656	90.419334
504.524902	1101.706421	20187.039063	18367.007813	90.463715
504.876953	1104.502441	20195.298828	18379.976563	90.491112
505.228912	1104.523926	20207.902344	18382.062500	90.442322
505.580872	1104.846680	20235.173828	18400.343750	90.408775
505.932770	1104.179810	20222.357422	18388.236328	90.406403
506.284698	1105.083252	20206.095703	18383.052734	90.455780
506.636505	1105.986572	20195.986328	18361.158203	90.388535
506.988342	1107.750244	20178.437500	18341.175781	90.366043
507.340088	1109.298828	20172.994141	18338.980469	90.379547
507.691772	1108.632080	20186.783203	18338.421875	90.311630
508.043396	1108.374023	20231.798828	18364.857422	90.237411
508.395050	1108.309448	20304.562500	18411.226563	90.136948
508.746582	1108.567505	20410.357422	18494.980469	90.076691
509.098114	1109.277222	20540.654297	18595.679688	89.990547
509.449646	1110.589355	20681.705078	18695.369141	89.850677
509.801086	1110.718262	20872.544922	18835.044922	89.689720
510.152557	1106.911499	21057.253906	18975.921875	89.567436
510.503906	1106.889893	21230.759766	19114.689453	89.484772
510.855194	1106.502808	21417.083984	19249.439453	89.327515
511.206482	1105.750000	21591.601563	19369.175781	89.151413
511.557709	1105.427368	21770.718750	19488.628906	88.956894
511.908844	1106.352295	21947.601563	19609.632813	88.782013
512.260010	1105.728516	22066.992188	19685.814453	88.640106
512.611206	1104.265869	22153.345703	19729.820313	88.486313
512.962219	1102.201050	22215.742188	19741.693359	88.282173
513.313232	1101.190308	22258.716797	19750.664063	88.145813
513.664246	1102.717285	22252.607422	19717.087891	88.011665
514.015137	1105.061646	22230.433594	19658.478516	87.825279
514.366028	1104.287354	22204.279297	19591.568359	87.617477
514.716919	1105.083252	22142.960938	19497.984375	87.427551
515.067688	1104.287354	22058.132813	19375.841797	87.199051
515.418396	1105.233643	21980.056641	19256.664063	86.953697
515.769104	1106.631714	21921.296875	19151.898438	86.694969
516.119812	1106.782227	21914.371094	19094.837891	86.449486
516.470459	1105.771362	21984.335938	19089.033203	86.132652
516.821106	1106.416504	22125.904297	19162.201172	85.900215
517.171631	1105.448730	22377.761719	19322.501953	85.637390
517.522095	1105.405762	22750.236328	19571.609375	85.314613
517.872559	1104.738892	23238.060547	19927.587891	85.043037
518.222961	1104.244263	23769.632813	20303.181641	84.705971
518.573364	1101.383789	24282.062500	20685.898438	84.486374
518.923645	1102.975464	24744.054688	21015.658203	84.229164
519.273987	1103.943237	25128.748047	21280.591797	83.982567
519.624207	1101.577393	25405.705078	21439.539063	83.681099
519.974487	1101.835449	25611.494141	21552.820313	83.440514
520.324646	1101.706543	25695.806641	21565.144531	83.204659
520.674744	1100.480469	25692.968750	21485.908203	82.892906
521.024780	1102.523682	25550.867188	21298.445313	82.606506
521.374878	1101.641846	25293.994141	21025.701172	82.356850
521.724792	1101.792480	24944.507813	20658.841797	82.025261
522.074707	1101.577271	24560.783203	20277.310547	81.740761
522.424744	1103.039917	24208.351563	19908.876953	81.391838
522.774536	1102.394653	23953.613281	19625.767578	81.060768
523.124329	1103.039917	23763.244141	19407.115234	80.776306
523.474182	1103.340942	23688.095703	19284.304688	80.501045
523.823914	1103.556030	23738.960938	19248.687500	80.162613
524.173523	1104.975464	23934.019531	19317.726563	79.778862
524.523132	1105.706909	24293.826172	19536.441406	79.483528
524.872803	1105.491821	24804.900391	19868.162109	79.169357
525.222290	1106.631714	25473.820313	20321.292969	78.854652
525.571777	1105.964966	26219.763672	20833.830078	78.553886
525.921326	1106.631714	27019.648438	21391.060547	78.278915
526.270752	1107.104980	27872.054688	21968.400391	77.942589
526.620178	1107.406006	28809.162109	22597.380859	77.576218
526.969482	1107.578247	29981.929688	23408.427734	77.234116
527.318787	1107.148071	31455.748047	24460.664063	76.950882
527.668030	1106.975952	33370.007813	25844.320313	76.673958
528.017212	1107.707153	35566.496094	27501.988281	76.596657
528.366394	1109.341675	37748.785156	29170.154297	76.586349
528.715515	1108.373901	39693.691406	30606.783203	76.449837
529.064636	1106.459595	41203.746094	31671.019531	76.226013
529.413635	1107.664063	42295.300781	32416.726563	76.015678
529.762695	1108.395386	43001.128906	32836.089844	75.735558
530.111633	1106.954224	43399.035156	33029.339844	75.480759
530.460510	1106.889771	43443.382813	32965.027344	75.249825
530.809387	1104.093750	43059.722656	32561.408203	74.977577
531.158142	1105.986450	42228.503906	31811.726563	74.668922
531.506958	1105.577881	40857.835938	30643.970703	74.306198
531.855652	1105.212280	39192.707031	29211.988281	73.795280
532.204407	1104.760620	37589.753906	27780.562500	73.114456
532.552979	1102.523682	36340.593750	26645.560547	72.487045
532.901611	1103.921753	35470.761719	25843.074219	71.985535
533.250183	1102.480591	34922.453125	25283.539063	71.499344
533.598755	1100.609497	34514.773438	24860.500000	71.107239
533.947205	1102.308594	34183.910156	24510.044922	70.757568
534.295593	1101.770996	33907.839844	24214.031250	70.451172
534.643982	1102.114990	33682.816406	23967.142578	70.179665
534.992249	1107.513550	33476.277344	23730.103516	69.890190
535.340576	1110.245117	33294.105469	23507.408203	69.591293
535.688843	1109.234253	33078.164063	23254.322266	69.270660
536.037048	1109.771973	32712.574219	22891.783203	68.924301
536.385315	1112.890625	32123.939453	22379.914063	68.578857
536.733398	1109.169800	31376.382813	21756.029297	68.215263
537.081421	1110.718262	30556.279297	21085.580078	67.836578
537.429443	1110.739746	29809.585938	20477.871094	67.484009
537.777466	1111.557129	29146.726563	19938.814453	67.155853
538.125427	1112.395874	28592.144531	19484.242188	66.855949
538.473267	1112.288330	28157.917969	19103.076172	66.520126
538.821167	1104.007813	27804.673828	18786.779297	66.225960
539.169006	1101.491333	27504.570313	18512.013672	65.941254
539.516846	1101.491455	27271.681641	18277.595703	65.632324
539.864502	1099.620117	27216.148438	18144.978516	65.266563
540.212219	1097.641357	27426.560547	18192.144531	64.926720
540.559875	1099.232910	28027.324219	18465.492188	64.491241
540.907410	1097.469238	28949.179688	18957.468750	64.125328
541.254944	1097.340210	29996.533203	19537.669922	63.809151
541.602478	1096.157349	30989.560547	20088.359375	63.533085
541.949951	1095.877686	31891.351563	20558.890625	63.200890
542.297363	1096.522949	32669.382813	20970.490234	62.946362
542.644714	1097.899536	33349.683594	21315.585938	62.687031
542.992126	1098.265137	33818.625000	21522.923828	62.421864
543.339355	1097.146606	34032.734375	21561.251953	62.133720
543.686646	1096.716553	33859.851563	21376.455078	61.898041
544.033813	1097.447754	33294.101563	20945.132813	61.645180
544.380920	1099.942871	32311.314453	20259.070313	61.385086
544.728027	1102.717285	31028.962891	19394.533203	61.122990
545.075134	1101.878540	29717.748047	18505.951172	60.819653
545.422180	1101.319214	28556.460938	17694.021484	60.435684
545.769165	1101.168701	27565.716797	17000.966797	60.079609
546.116150	1100.738403	26715.267578	16388.482422	59.683876
546.463013	1100.781494	25948.162109	15845.490234	59.341099
546.809875	1100.437378	25327.935547	15403.112305	59.034882
547.156677	1101.620361	24759.798828	15000.655273	58.749390
547.503418	1100.050293	24299.312500	14660.634766	58.452652
547.850098	1100.781616	23867.107422	14331.540039	58.115475
548.196777	1100.179321	23446.021484	14031.072266	57.867107
548.543396	1096.974609	23044.662109	13729.528320	57.557560
548.890015	1101.319214	22595.550781	13407.766602	57.254650
549.236633	1102.760254	22087.208984	13059.616211	56.979603
549.583069	1101.985962	21522.902344	12693.078125	56.760880
549.929504	1102.416138	20921.300781	12309.633789	56.548176
550.275879	1100.760132	20313.160156	11910.400391	56.263874
550.622253	1100.416016	19706.720703	11512.566406	55.960335
550.968567	1100.329956	19190.935547	11169.771484	55.661163
551.314819	1102.996948	18745.742188	10868.658203	55.352272
551.661072	1103.319580	18430.111328	10644.287109	55.064827
552.007263	1102.136719	18231.054688	10476.115234	54.726040
552.353394	1105.448975	18094.607422	10350.358398	54.416523
552.699524	1103.706665	18014.039063	10249.291016	54.082817
553.045593	1101.190308	17973.261719	10181.649414	53.819466
553.391602	1101.405396	17957.236328	10125.707031	53.538162
553.737549	1102.652832	17924.416016	10062.709961	53.264668
554.083435	1104.545410	17887.830078	10000.379883	53.004128
554.429321	1106.481201	17838.468750	9937.639648	52.780087
554.775146	1105.792847	17752.048828	9850.402344	52.531990
555.120972	1104.524048	17666.900391	9764.091797	52.284569
555.466675	1104.437866	17512.492188	9641.430664	52.029282
555.812439	1107.040405	17331.201172	9507.285156	51.776146
556.158081	1106.223145	17119.562500	9353.739258	51.504032
556.503662	1108.008301	16909.386719	9200.624023	51.214619
556.849182	1109.427734	16702.757813	9049.745117	50.921242
557.194702	1110.632202	16524.908203	8908.630859	50.589455
557.540161	1110.288086	16370.159180	8784.959961	50.293163
557.885620	1112.653931	16227.881836	8672.128906	50.012314
558.231018	1111.643066	16102.038086	8562.157227	49.701923
558.576355	1110.567627	15996.025391	8470.231445	49.441971
558.921692	1110.524658	15889.324219	8384.672852	49.220158
559.266968	1109.255737	15814.516602	8309.374023	48.962872
559.612183	1106.115601	15738.808594	8239.731445	48.751213
559.957336	1104.007813	15700.633789	8181.143555	48.484737
560.302429	1100.179321	15672.478516	8140.556641	48.313431
560.647522	1099.405151	15656.972656	8103.929199	48.116032
560.992554	1098.781372	15642.175781	8071.882324	47.946861
561.337524	1099.985840	15644.003906	8045.062012	47.752117
561.682434	1100.910645	15641.809570	8019.961426	47.583378
562.027344	1101.319214	15641.678711	7993.441895	47.399948
562.372253	1103.921753	15653.250000	7962.814453	47.142330
562.717102	1105.405762	15654.325195	7934.488770	46.938763
563.061829	1107.384521	15657.531250	7912.206055	46.768059
563.406494	1109.642822	15653.788086	7881.578125	46.561249
563.751160	1112.245239	15640.667969	7853.037598	46.397278
564.095825	1114.138062	15643.056641	7826.109375	46.197319
564.440369	1115.557495	15647.035156	7807.397949	46.050652
564.784973	1115.794067	15681.599609	7801.418457	45.899448
565.129456	1114.546753	15765.953125	7811.763672	45.710403
565.473877	1109.212646	15897.497070	7839.014160	45.507656
565.818298	1108.911743	16063.000000	7900.162109	45.414005
566.162659	1109.858154	16232.483398	7967.912109	45.349625
566.507019	1106.674683	16407.216797	8027.490234	45.232487
566.851196	1103.749634	16544.824219	8068.935547	45.108170
567.195435	1101.319214	16677.636719	8104.058105	44.957603
567.539612	1098.845825	16770.142578	8127.759766	44.852154
567.883789	1098.437378	16815.396484	8133.997070	44.764126
568.227844	1098.394287	16842.580078	8127.265137	44.644234
568.571960	1097.835083	16832.666016	8105.778320	44.537773
568.915955	1096.867065	16774.658203	8064.870605	44.445057
569.259888	1097.835083	16687.314453	8016.112305	44.377861
569.603821	1097.146729	16574.826172	7941.521973	44.220936
569.947632	1096.200439	16458.447266	7872.716797	44.111492
570.291504	1100.308472	16368.566406	7816.774902	43.989735
570.635193	1103.319458	16348.822266	7783.974609	43.820499
570.979004	1106.567261	16355.253906	7778.340332	43.753098
571.322632	1108.008179	16430.789063	7798.987793	43.666874
571.666321	1110.029907	16548.783203	7837.036133	43.572212
572.009949	1110.116089	16681.423828	7878.245605	43.465389
572.353455	1108.631958	16804.339844	7911.926270	43.344936
572.696960	1108.352417	16900.718750	7933.219238	43.216240
573.040405	1110.395630	16978.382813	7947.780762	43.089176
573.383850	1111.169922	17033.099609	7956.943359	42.995876
573.727173	1111.148438	17071.361328	7961.201660	42.919559
574.070557	1112.223755	17088.847656	7952.748535	42.815834
574.413879	1111.428101	17074.267578	7939.650391	42.775734
574.757019	1108.868530	17051.748047	7916.163574	42.698025
575.100281	1107.255371	16966.144531	7866.845703	42.623356
575.443420	1104.072266	16850.496094	7799.891113	42.522789
575.786499	1101.082642	16706.648438	7721.882324	42.425888
576.129517	1102.502197	16550.652344	7642.517578	42.335266
576.472534	1103.147461	16393.923828	7571.863770	42.304695
576.815491	1100.071777	16227.774414	7493.336426	42.261967
577.158447	1101.813965	16047.149414	7407.433105	42.191216
577.501343	1102.308716	15860.006836	7315.680176	42.102581
577.844116	1100.007202	15642.734375	7213.904297	42.040924
578.187012	1096.307861	15400.768555	7104.406250	42.001572
578.529724	1095.512085	15125.292969	6977.229980	41.923088
578.872375	1097.189575	14852.269531	6855.322266	41.861862
579.215027	1099.619995	14596.324219	6733.156738	41.740093
579.557617	1101.663330	14341.688477	6618.411133	41.667202
579.900146	1100.996582	14109.167969	6508.850098	41.572739
580.242676	1100.286743	13887.053711	6407.869141	41.508404
580.585144	1102.416138	13688.233398	6318.825195	41.446724
580.927612	1097.211182	13509.136719	6237.309570	41.412579
581.269958	1098.265137	13349.159180	6165.301270	41.360538
581.612305	1096.544434	13215.940430	6108.024902	41.350906
581.954590	1099.426636	13088.009766	6053.115234	41.320049
582.296814	1099.620117	12997.846680	6012.723633	41.292736
582.639038	1099.598633	12918.224609	5973.815430	41.241821
582.981140	1100.867676	12828.277344	5935.616699	41.226059
583.323242	1100.093384	12760.247070	5902.473145	41.186249
583.665283	1101.598755	12687.206055	5880.470703	41.248352
584.007324	1102.459106	12630.016602	5854.294922	41.221531
584.349304	1101.469849	12565.449219	5819.064941	41.151463
584.691284	1104.825073	12509.077148	5792.459473	41.104267
585.033142	1103.749634	12446.015625	5764.391602	41.090927
585.374939	1105.620972	12396.288086	5734.882813	41.000782
585.716736	1106.287598	12363.918945	5712.578613	40.917053
586.058411	1106.631714	12314.062500	5689.372070	40.890194
586.400085	1105.169312	12271.843750	5671.692383	40.894207
586.741760	1102.480713	12244.743164	5659.175293	40.895592
587.083374	1103.771240	12229.579102	5654.400391	40.901562
587.424988	1101.233276	12208.243164	5642.376953	40.885384
587.766541	1101.211792	12204.802734	5634.074707	40.823395
588.107971	1101.792480	12225.365234	5640.828125	40.805557
588.449341	1100.975098	12243.366211	5648.656738	40.814236
588.790710	1099.878174	12287.006836	5663.390137	40.792519
589.132080	1098.135986	12324.086914	5676.789551	40.786327
589.473267	1096.931519	12371.899414	5696.232422	40.792141
589.814514	1098.501831	12421.753906	5714.687012	40.767307
590.155762	1099.361938	12476.449219	5731.850098	40.717701
590.496948	1099.598755	12504.647461	5742.991211	40.713482
590.838013	1098.372803	12512.971680	5740.603516	40.669239
591.179077	1100.200928	12532.156250	5737.678711	40.565918
591.520081	1099.061035	12520.821289	5732.387695	40.565784
591.861023	1101.039673	12486.795898	5717.999023	40.550312
592.201965	1101.813965	12456.897461	5695.910156	40.458496
592.542847	1102.975464	12411.947266	5673.756836	40.417301
592.883606	1104.287231	12367.211914	5655.388672	40.407814
593.224365	1104.803589	12327.699219	5633.063477	40.348408
593.565125	1104.201294	12297.759766	5619.448730	40.337910
593.905823	1104.997192	12292.082031	5615.878418	40.322224
594.246521	1104.825073	12300.319336	5614.071777	40.277332
594.587097	1105.405762	12337.787109	5631.880859	40.298447
594.927612	1103.663574	12377.016602	5649.129883	40.320446
595.268127	1107.470581	12465.393555	5676.208984	40.225121
595.608582	1104.523926	12591.065430	5717.482422	40.159683
595.948975	1104.480957	12754.353516	5782.953125	40.158997
596.289307	1102.609863	12963.261719	5858.230957	40.095779
596.629700	1103.685181	13186.622070	5940.520508	40.030296
596.969971	1103.728271	13371.160156	6013.733887	40.024727
597.310242	1100.889160	13526.062500	6071.633301	40.005428
597.650391	1100.157837	13605.190430	6096.712402	39.956352
597.990540	1099.878174	13650.722656	6109.122070	39.911610
598.330627	1100.802979	13634.741211	6093.335449	39.832111
598.670654	1102.459106	13597.016602	6072.708984	39.779320
599.010620	1100.781494	13495.285156	6035.607910	39.814632
599.350525	1102.394653	13339.931641	5980.031250	39.857994
599.690491	1102.889282	13141.822266	5899.461914	39.842175
600.030334	1104.631348	12888.436523	5798.223633	39.830872
600.370178	1103.706665	12608.874023	5686.876465	39.835754
600.710022	1103.340942	12353.983398	5581.959961	39.807674
601.049683	1105.448853	12123.308594	5480.678711	39.710346
601.389343	1106.179932	11952.103516	5410.326172	39.684464
601.728943	1108.804077	11825.530273	5361.201660	39.680004
602.068542	1109.126709	11770.749023	5339.887207	39.682148
602.408081	1109.599854	11772.899414	5339.629395	39.669044
602.747498	1109.664429	11851.620117	5367.288574	39.635464
603.087036	1111.686157	11982.431641	5413.187012	39.569515
603.426453	1112.976685	12153.119141	5477.539063	39.533569
603.765869	1110.202148	12362.887695	5559.333984	39.538399
604.105103	1110.524658	12622.231445	5659.216797	39.513622
604.444336	1110.911987	12888.199219	5754.734863	39.430325
604.783569	1111.041016	13144.318359	5853.757324	39.413338
605.122681	1111.213013	13344.558594	5927.250488	39.368114
605.461792	1109.836426	13510.168945	5989.645020	39.352242
605.800842	1108.546021	13610.160156	6027.800293	39.348953
606.139954	1107.320068	13633.516602	6036.490234	39.350891
606.478943	1104.997192	13588.285156	6009.518555	39.288700
606.817932	1103.018433	13471.905273	5963.899902	39.299263
607.156799	1099.942871	13316.102539	5897.117676	39.269089
607.495605	1102.222656	13124.227539	5819.215820	39.236328
607.834412	1102.373169	12890.758789	5726.580566	39.226810
608.173157	1102.824829	12666.816406	5642.032227	39.252949
608.511841	1104.631470	12488.428711	5579.121582	39.305782
608.850464	1101.598877	12393.342773	5543.310547	39.335926
609.189148	1100.867676	12331.291016	5517.049316	39.323376
609.527710	1102.373169	12310.579102	5503.435059	39.266426
609.866211	1103.620605	12299.610352	5497.068359	39.241261
610.204712	1106.588745	12302.170898	5501.348145	39.254406
610.543091	1107.470581	12317.785156	5497.262207	39.158504
610.881409	1108.008301	12304.255859	5493.411621	39.168507
611.219788	1108.588989	12272.855469	5476.636230	39.125252
611.558044	1109.341797	12214.374023	5452.912109	39.113533
611.896301	1111.298950	12105.306641	5409.767578	39.098286
612.234436	1111.277588	11950.253906	5339.780762	39.012012
612.572693	1114.869385	11745.735352	5255.941895	38.953293
612.910767	1116.761963	11511.339844	5163.607910	38.932278
613.248840	1116.267456	11275.934570	5067.251953	38.888916
613.586792	1117.020264	11057.434570	4975.584473	38.816936
613.924805	1115.708252	10842.978516	4889.315918	38.794106
614.262695	1114.482300	10645.383789	4818.360840	38.861786
614.600525	1114.396240	10479.063477	4752.589355	38.850212
614.938293	1115.407104	10334.011719	4696.732422	38.848888
615.276123	1115.105957	10216.600586	4646.145508	38.796261
615.613892	1112.697144	10119.468750	4606.419922	38.789955
615.951538	1112.869263	10035.264648	4571.362305	38.761936
616.289185	1111.191528	9964.289063	4545.165527	38.788391
616.626770	1109.664429	9918.842773	4524.130371	38.760319
616.964294	1106.266113	9871.631836	4510.257813	38.834568
617.301819	1105.298218	9836.186523	4496.600098	38.842571
617.639221	1104.244385	9811.043945	4485.889160	38.839123
617.976624	1103.104370	9794.525391	4475.608887	38.802681
618.313965	1104.717651	9778.867188	4469.414551	38.789932
618.651306	1103.104370	9769.812500	4467.844238	38.823734
618.988525	1100.910645	9749.508789	4464.251953	38.888863
619.325684	1100.523560	9738.023438	4463.241699	38.931614
619.662964	1097.469360	9723.526367	4459.477539	38.975033
620.000000	1097.878052	9699.093750	4448.143066	38.951065
620.337097	1097.490845	9680.337891	4440.270996	38.947220
620.674133	1099.383423	9650.034180	4426.354980	38.908989
621.011047	1099.835083	9618.074219	4414.568359	38.913364
621.347961	1100.329956	9586.823242	4401.319824	38.896984
621.684875	1100.802979	9554.108398	4393.985840	38.957336
622.021729	1100.179321	9526.449219	4380.994629	38.935562
622.358521	1098.867310	9485.691406	4361.336426	38.899937
622.695313	1100.781494	9469.496094	4351.377930	38.842243
623.031982	1102.480591	9450.352539	4339.354980	38.774845
623.368652	1102.437622	9430.759766	4333.117676	38.791489
623.705261	1100.351440	9426.780273	4330.773438	38.797207
624.041748	1101.792480	9415.875977	4329.999512	38.828175
624.378296	1102.265625	9427.769531	4331.311523	38.784992
624.714722	1100.846191	9451.643555	4338.989746	38.776463
625.051147	1101.620361	9482.874023	4356.604980	38.836487
625.387512	1103.104492	9537.332031	4376.736328	38.813652
625.723877	1101.104248	9609.727539	4402.739258	38.803398
626.060120	1104.373535	9705.783203	4443.991699	38.826405
626.396301	1103.405518	9810.548828	4481.716797	38.799305
626.732483	1102.480713	9923.336914	4525.743652	38.808735
627.068604	1105.599365	10026.339844	4568.007324	38.813011
627.404724	1107.578125	10120.566406	4603.021973	38.782295
627.740662	1109.019043	10197.843750	4629.691895	38.736286
628.076721	1108.653442	10251.227539	4651.888184	38.755329
628.412720	1110.137573	10279.768555	4665.352051	38.771618
628.748596	1111.277466	10278.176758	4663.781738	38.753609
629.084473	1110.180542	10255.765625	4646.897949	38.671307
629.420227	1110.997803	10199.952148	4628.465332	38.700466
629.755981	1109.148071	10126.933594	4595.837891	38.664593
630.091675	1110.825684	10019.027344	4555.317383	38.666523
630.427307	1112.051758	9896.172852	4508.128418	38.661541
630.762939	1109.857910	9780.782227	4455.626953	38.586075
631.098450	1109.857910	9658.659180	4408.266602	38.583290
631.434021	1108.610474	9552.324219	4365.014160	38.566013
631.769470	1110.288208	9450.181641	4327.117188	38.571583
632.104980	1108.868652	9358.600586	4290.983887	38.572346
632.440308	1109.019165	9287.387695	4262.635742	38.560463
632.775635	1110.460083	9221.637695	4242.289063	38.611275
633.110901	1110.718262	9172.383789	4221.727051	38.590149
633.446106	1108.803955	9141.413086	4209.295410	38.598808
633.781250	1106.395020	9119.647461	4202.950684	38.642933
634.116394	1104.351685	9106.871094	4195.896484	38.632145
634.451538	1103.964722	9088.071289	4193.401367	38.694832
634.786560	1104.889526	9066.843750	4187.142578	38.712269
635.121582	1104.158325	9036.861328	4179.614258	38.769333
635.456543	1102.867920	9013.956055	4165.312012	38.710785
635.791443	1103.405518	8978.316406	4152.083984	38.713814
636.126221	1102.115112	8944.291016	4138.082520	38.713329
636.461060	1101.082520	8894.779297	4119.542480	38.729504
636.795776	1102.437622	8839.051758	4100.658691	38.753658
637.130493	1103.986206	8763.537109	4073.149902	38.764198
637.465210	1104.932495	8679.355469	4039.360352	38.741272
637.799805	1104.201294	8598.743164	4006.732910	38.728607
638.134399	1105.126099	8515.613281	3971.718018	38.682907
638.468933	1104.739136	8442.809570	3944.209473	38.695053
638.803345	1105.233765	8369.079102	3915.710938	38.691311
639.137756	1106.180176	8300.727539	3888.890625	38.678047
639.472168	1108.158936	8234.504883	3863.812500	38.668537
639.806519	1108.588989	8162.990234	3833.636719	38.629044
640.140747	1109.148193	8101.584473	3808.515381	38.604099
640.474976	1109.277222	8037.254395	3782.575928	38.587006
640.809204	1111.836792	7979.053223	3758.357910	38.538483
641.143372	1110.374146	7928.143555	3739.086914	38.556786
641.477478	1114.718750	7877.126465	3719.234619	38.514622
641.811462	1117.127686	7829.335938	3701.533691	38.503067
642.145447	1116.697510	7787.459473	3686.521240	38.523693
642.479370	1115.751099	7747.927734	3668.519287	38.490650
642.813293	1114.740356	7702.352051	3655.657227	38.571140
643.147095	1111.320435	7667.423340	3643.268799	38.619713
643.480957	1110.481567	7625.482422	3634.106201	38.735596
643.814758	1107.793091	7583.713867	3618.104492	38.763779
644.148438	1106.223145	7555.732422	3607.801758	38.787117
644.482117	1103.599121	7518.501953	3597.327393	38.873985
644.815735	1105.448853	7490.928223	3584.013916	38.815643
645.149292	1101.555786	7467.140625	3577.647461	38.898102
645.482788	1098.996460	7448.965820	3575.281494	38.996807
645.816223	1098.566284	7431.716797	3564.548584	38.937691
646.149658	1097.705933	7428.146484	3565.624756	38.984947
646.483032	1098.652222	7430.468750	3570.743652	39.042374
646.816345	1100.630981	7431.608887	3568.119385	38.974834
647.149658	1102.244019	7439.351563	3565.430664	38.869255
647.482849	1102.910889	7446.212891	3568.872070	38.875042
647.816101	1104.825073	7450.600098	3569.496094	38.839558
648.149231	1104.932617	7464.882324	3572.550537	38.799332
648.482239	1106.674683	7469.527832	3577.475586	38.831650
648.815247	1107.513672	7467.269043	3576.271240	38.818436
649.148254	1106.050903	7468.194824	3577.970459	38.853561
649.481201	1104.588501	7461.182617	3576.937744	38.894241
649.814087	1106.631714	7451.654785	3575.324463	38.907547
650.146973	1107.018799	7444.514160	3565.517090	38.792904
650.479736	1107.449097	7438.620605	3568.786133	38.876484
650.812500	1109.384888	7438.943359	3573.689697	38.933277
651.145203	1110.481689	7432.791016	3577.324951	39.018070
651.477844	1107.965332	7429.307617	3577.539795	39.067249
651.810486	1108.137329	7416.251953	3575.668701	39.116779
652.143005	1105.083130	7405.906738	3573.668701	39.178772
652.475525	1104.437988	7396.120605	3572.464111	39.226807
652.807922	1106.266113	7389.001465	3566.119385	39.152584
653.140381	1106.610229	7376.376465	3562.269531	39.166679
653.472717	1103.620605	7354.674805	3556.441162	39.238510
653.805115	1103.018433	7323.789551	3552.225098	39.371429
654.137390	1102.824829	7287.226074	3539.385010	39.398479
654.469543	1097.684448	7250.768555	3524.716309	39.444153
654.801758	1098.329590	7218.700195	3510.241211	39.407936
655.133850	1099.405151	7179.599609	3496.325684	39.421772
655.465881	1098.888794	7139.163574	3486.646973	39.530624
655.797974	1096.974731	7113.440918	3480.172852	39.611263
656.129944	1097.555420	7086.577637	3470.537598	39.622196
656.461853	1099.448120	7063.047363	3466.214600	39.686882
656.793762	1102.738892	7047.625488	3465.439941	39.743420
657.125610	1104.373535	7052.852051	3463.741211	39.663380
657.457397	1103.556152	7071.069824	3469.892090	39.653633
657.789124	1103.534668	7116.387695	3483.507080	39.581417
658.120789	1105.749878	7179.706543	3504.928955	39.499447
658.452393	1106.997437	7273.008301	3536.459473	39.400871
658.783997	1105.943481	7375.924805	3577.604492	39.420551
659.115540	1106.696167	7501.123047	3623.007813	39.351635
659.447083	1107.793091	7609.265625	3662.754639	39.298195
659.778503	1107.233887	7715.730957	3705.599121	39.318550
660.109924	1107.018799	7793.073730	3735.021973	39.305740
660.441284	1105.513306	7858.179199	3758.874756	39.293537
660.772522	1106.760864	7893.945313	3777.070313	39.343407
661.103760	1107.922241	7915.217285	3785.910156	39.339970
661.434998	1106.481201	7898.011230	3785.307861	39.443638
661.766113	1106.008057	7844.434570	3769.090576	39.520836
662.097229	1102.932495	7755.154297	3742.549805	39.680233
662.428345	1104.351929	7642.860840	3701.232910	39.716713
662.759277	1103.835815	7506.284180	3651.312500	39.789101
663.090332	1106.051025	7372.504883	3603.285156	39.850834
663.421204	1105.964966	7237.068359	3554.268066	39.932507
663.752075	1104.201416	7111.053223	3509.552979	40.043465
664.082886	1103.491699	6993.533203	3466.988525	40.126999
664.413635	1103.147461	6897.714355	3429.135010	40.140835
664.744324	1101.986084	6798.562988	3392.011719	40.200027
665.075012	1102.738770	6720.575195	3362.007813	40.216000
665.405640	1101.405273	6651.684082	3338.693115	40.309467
665.736206	1103.018433	6597.204590	3314.840576	40.257507
666.066772	1102.287109	6552.811035	3298.860352	40.300220
666.397278	1104.545532	6512.850098	3283.267090	40.284744
666.727661	1104.760620	6481.276367	3270.770996	40.286507
667.058044	1107.298584	6457.229980	3259.178223	40.222565
667.388306	1106.244629	6443.937988	3253.672119	40.231377
667.718567	1108.008179	6436.582520	3249.456299	40.188015
668.048828	1108.524292	6420.128418	3249.391602	40.305473
668.378967	1109.685669	6420.214355	3252.746826	40.354946
668.709167	1110.761108	6417.482910	3251.392090	40.338104
669.039246	1113.793823	6422.258301	3252.854492	40.295280
669.369263	1113.578735	6419.311035	3254.704590	40.354958
669.699341	1114.869263	6418.881348	3253.091309	40.313297
670.029236	1111.557129	6416.343262	3253.929932	40.385658
670.359131	1111.062500	6409.267090	3252.338379	40.415123
670.688965	1111.105347	6394.383301	3247.606445	40.438931
671.018738	1110.804321	6371.907715	3238.336670	40.438896
671.348511	1109.513794	6346.979980	3231.217773	40.510124
671.678223	1109.126831	6323.922363	3220.484619	40.487839
672.007813	1109.793457	6291.059082	3205.472412	40.447239
672.337341	1109.771973	6263.012695	3192.115723	40.408432
672.666992	1107.126465	6228.685547	3179.770508	40.469006
672.996460	1106.567261	6194.315918	3165.381348	40.466110
673.325867	1106.674683	6163.687988	3156.541992	40.535137
673.655273	1107.664063	6137.255859	3141.572021	40.438828
673.984619	1108.137207	6105.014160	3128.086182	40.424229
674.314026	1106.352173	6081.786133	3121.978027	40.511559
674.643250	1109.169678	6066.751465	3116.644287	40.493019
674.972412	1108.911621	6044.662598	3105.374268	40.449017
675.301514	1109.836426	6022.487793	3093.480225	40.378273
675.630676	1108.115723	6002.120117	3086.640381	40.427521
675.959778	1108.997559	5975.536133	3078.940430	40.479343
676.288757	1110.331177	5957.340332	3069.476807	40.419682
676.617737	1110.589233	5939.982910	3061.777344	40.402344
676.946594	1110.481689	5927.228516	3053.066406	40.329803
677.275513	1112.159424	5917.485840	3048.011963	40.285561
677.604309	1110.933472	5916.410645	3044.807617	40.243126
677.933044	1111.514160	5917.894043	3041.129150	40.146950
678.261780	1111.105347	5922.927246	3039.839111	40.083233
678.590393	1111.083862	5944.069824	3051.302979	40.145351
678.919067	1111.298950	5971.642578	3061.648193	40.127804
679.247620	1111.557129	6012.680176	3073.735840	40.035286
679.576111	1109.234253	6065.073730	3091.286133	39.994270
679.904541	1110.481689	6116.520508	3113.718994	40.016415
680.232971	1110.331177	6170.592285	3132.839844	39.968464
680.561401	1111.514160	6222.878418	3151.271973	39.906330
680.889709	1108.029785	6266.690430	3167.768799	39.927788
681.217957	1108.847168	6304.565918	3183.426758	39.928635
681.546143	1107.147949	6336.118652	3195.600098	39.940025
681.874390	1106.567261	6363.929199	3203.644287	39.888393
682.202454	1107.104980	6377.048340	3205.257568	39.813568
682.530579	1105.362793	6373.069824	3205.558594	39.869259
682.858521	1104.653076	6347.904785	3195.277344	39.872665
683.186523	1104.459473	6305.984863	3181.168213	39.924995
683.514465	1104.610107	6256.107910	3157.014648	39.840927
683.842346	1107.664185	6199.477051	3134.086914	39.797665
684.170166	1105.814453	6130.351074	3110.428223	39.896492
684.497925	1106.244751	6065.568848	3084.704590	39.893738
684.825623	1107.599609	5997.044922	3056.013184	39.849380
685.153320	1108.868652	5927.315430	3026.031006	39.787975
685.481018	1108.911621	5857.564453	3002.501465	39.876358
685.808533	1108.524414	5790.458984	2974.949219	39.864391
686.136047	1107.836182	5742.517578	2949.354736	39.733440
686.463623	1109.621460	5702.556152	2930.599854	39.647385
686.791016	1110.159058	5668.250488	2917.781006	39.657433
687.118408	1110.503174	5650.915039	2911.156250	39.658363
687.445740	1107.513550	5642.226074	2909.693604	39.741882
687.772949	1108.588989	5639.429688	2907.801025	39.710335
688.100220	1109.642944	5636.375977	2908.016113	39.727840
688.427429	1108.416992	5627.041504	2906.661133	39.796272
688.754517	1108.158813	5621.642578	2904.854492	39.807293
689.081604	1106.674683	5610.265137	2897.692383	39.768665
689.408630	1105.362793	5600.801270	2892.379883	39.751785
689.735657	1105.642456	5574.109863	2888.422363	39.896900
690.062622	1104.050781	5543.417969	2881.453857	40.037308
690.389465	1104.889526	5509.865234	2865.581055	39.970516
690.716248	1103.104370	5459.945313	2847.256104	40.032486
691.043091	1103.534546	5409.895996	2822.650879	39.920391
691.369812	1100.738525	5356.147461	2796.109863	39.840382
691.696533	1100.200806	5301.043457	2772.924316	39.818760
692.023132	1098.609253	5254.887207	2756.836182	39.896923
692.349670	1098.243652	5204.601563	2735.478760	39.870735
692.676270	1099.534058	5159.069824	2716.207520	39.824097
693.002747	1101.018066	5112.289551	2698.355713	39.821232
693.329163	1101.663330	5069.444824	2677.364014	39.712387
693.655518	1103.018433	5035.763672	2659.361816	39.573971
693.981873	1102.695801	5001.974121	2644.843994	39.549580
694.308167	1103.233521	4973.066895	2631.724121	39.497581
694.634399	1104.932617	4942.225098	2620.023682	39.483337
694.960571	1106.739380	4920.630859	2611.011719	39.441925
695.286743	1108.395386	4908.586426	2605.312012	39.390564
695.612854	1112.331421	4894.799805	2593.934326	39.170265
695.938904	1113.944580	4892.305176	2593.482666	39.158203
696.264832	1113.406738	4900.606934	2595.762451	39.141201
696.590820	1113.922974	4914.587891	2600.193115	39.105530
696.916687	1115.148926	4947.494629	2609.398438	38.990467
697.242554	1115.192017	4991.392578	2628.110352	39.030960
697.568359	1114.675781	5060.712891	2651.166992	38.937576
697.894043	1112.761597	5152.788574	2682.654785	38.858482
698.219788	1111.707642	5268.050293	2725.499023	38.827198
698.545349	1111.557129	5390.603027	2770.472412	38.768345
698.870972	1110.460205	5502.703125	2811.165527	38.720654
699.196533	1106.868408	5613.749512	2850.310303	38.684002
699.521973	1106.545776	5703.437988	2881.368164	38.609180
699.847412	1105.835938	5769.488770	2902.961914	38.534729
700.172852	1104.093872	5815.709961	2920.555664	38.552837
700.498169	1101.297852	5836.680176	2925.394775	38.520584
700.823486	1099.813721	5825.216309	2919.243652	38.503174
701.148682	1101.986084	5778.306641	2902.295166	38.498413
701.473816	1105.083252	5696.382813	2865.989502	38.353111
701.799072	1105.879028	5577.120605	2821.424805	38.368443
702.124146	1105.706909	5441.641602	2771.698242	38.422890
702.449158	1104.158325	5300.936523	2718.508789	38.466423
702.774109	1105.964966	5162.812012	2664.910889	38.427525
703.099060	1104.631470	5029.117676	2614.323975	38.468536
703.424011	1104.437866	4913.533203	2571.178711	38.506279
703.748840	1105.792969	4806.660156	2529.582275	38.471775
704.073608	1108.546021	4708.862793	2495.750244	38.530060
704.398315	1109.083740	4621.755371	2459.250977	38.437046
704.723022	1106.072632	4552.198730	2431.075439	38.449055
705.047668	1102.781860	4495.869141	2414.127197	38.647556
705.372253	1099.448120	4451.777832	2395.630127	38.665112
705.696716	1099.146973	4410.267090	2376.380371	38.574059
706.021240	1100.136353	4376.305176	2362.808838	38.541130
706.345764	1099.749146	4348.086914	2351.646240	38.539619
706.670044	1100.222290	4330.923340	2342.634277	38.456421
706.994446	1100.265381	4310.254395	2335.902344	38.493496
707.318665	1101.061035	4298.081055	2332.310303	38.512405
707.642883	1100.157837	4292.510254	2327.449707	38.444748
707.967102	1098.050049	4292.812012	2328.417480	38.512024
708.291260	1099.706177	4293.822266	2327.427979	38.436981
708.615295	1102.050537	4291.865234	2325.707764	38.361389
708.939331	1102.029053	4298.231445	2323.750244	38.224152
709.263367	1101.943115	4309.265137	2328.159668	38.231789
709.587280	1102.115112	4325.977051	2332.439453	38.163059
709.911194	1100.480347	4344.538086	2340.117920	38.212563
710.234985	1099.835205	4365.529785	2349.086914	38.253784
710.558716	1100.717041	4396.308105	2356.700684	38.111027
710.882568	1102.889282	4426.140137	2360.916260	37.855312
711.206177	1102.889404	4457.950195	2371.842529	37.822060
711.529785	1107.513550	4485.265625	2384.145020	37.795300
711.853394	1108.029785	4506.816895	2388.855225	37.684780
712.176880	1105.986450	4521.592285	2397.221924	37.803993
712.500427	1107.707153	4531.206543	2403.824707	37.859436
712.823792	1107.384521	4530.346191	2406.556152	37.954605
713.147217	1106.093872	4531.399902	2403.802979	37.885929
713.470520	1106.825317	4518.710449	2399.049805	37.874207
713.793823	1106.373535	4501.353516	2389.930176	37.807487
714.117004	1108.976074	4472.166992	2378.531006	37.748524
714.440247	1104.868042	4443.690918	2370.508789	37.906796
714.763367	1102.760254	4412.395996	2359.367676	37.968147
715.086365	1100.329834	4382.779297	2345.968262	37.948441
715.409485	1098.609253	4355.507324	2340.956787	38.145119
715.732361	1101.276245	4341.785156	2330.890869	37.945110
716.055298	1100.329956	4323.395996	2323.513428	37.950928
716.378174	1101.147339	4308.361328	2316.200928	37.885017
716.700928	1103.319580	4286.186523	2311.598145	37.961956
717.023804	1104.201294	4265.281250	2304.371338	37.967087
717.346558	1104.007813	4237.363770	2297.854492	38.101215
717.669189	1100.480469	4207.661621	2289.122559	38.254677
717.991760	1101.878418	4171.678711	2277.421875	38.293808
718.314392	1102.996948	4133.953613	2262.258789	38.247391
718.636902	1102.588257	4093.410400	2248.429199	38.311905
718.959351	1103.297974	4045.125000	2228.792236	38.258343
719.281738	1101.061157	3988.989014	2210.295410	38.409348
719.604065	1102.115112	3935.863525	2186.872803	38.279957
719.926453	1102.781738	3882.695557	2167.063965	38.284721
720.248718	1103.340942	3835.851563	2146.394775	38.171993
720.570923	1102.867798	3792.599121	2126.607422	38.061035
720.893066	1102.652710	3753.239746	2111.874756	38.075417
721.215088	1104.437866	3720.697754	2098.733154	38.004456
721.537170	1103.469971	3689.274414	2085.010986	37.958828
721.859192	1106.330566	3656.625000	2076.192871	38.029427
722.181152	1106.352051	3627.287598	2063.266357	37.958698
722.503052	1106.266113	3610.834473	2055.953369	37.918201
722.824951	1106.567139	3591.348389	2049.264648	37.938854
723.146790	1106.352051	3574.485840	2050.512207	38.254009
723.468506	1104.717529	3564.161865	2045.694458	38.259735
723.790161	1102.480591	3549.773438	2040.209839	38.317001
724.111816	1099.899658	3537.320313	2039.199097	38.536617
724.433472	1100.200684	3528.436768	2031.757080	38.363503
724.755005	1098.480225	3522.715820	2031.305542	38.479153
725.076477	1099.146973	3519.081299	2032.101196	38.552876
725.397888	1098.501831	3519.769531	2028.272949	38.400181
725.719299	1097.662964	3522.264160	2028.703003	38.399719
726.040710	1097.060669	3518.736816	2027.283569	38.412357
726.361938	1098.953369	3524.565674	2030.982910	38.424507
726.683167	1100.824585	3530.178955	2032.079956	38.333450
727.004395	1102.179565	3539.061768	2036.381348	38.335941
727.325500	1104.351929	3550.547119	2044.554321	38.435295
727.646667	1107.621094	3572.915771	2053.523193	38.368725
727.967651	1109.707397	3590.681396	2065.825928	38.538029
728.288635	1112.675537	3607.371826	2071.460938	38.432949
728.609558	1112.309814	3623.545898	2075.396973	38.351120
728.930481	1111.514160	3633.159912	2082.516113	38.506676
729.251282	1112.611084	3644.666260	2088.818115	38.553940
729.572021	1112.976685	3656.840088	2091.463379	38.464596
729.892761	1110.266479	3661.572021	2091.312744	38.452713
730.213440	1110.395630	3669.250244	2093.614258	38.424171
730.534119	1109.857910	3674.411865	2097.506836	38.511528
730.854675	1109.148071	3682.327393	2102.217285	38.593082
731.175171	1106.588745	3681.402100	2101.679443	38.647099
731.495605	1104.050781	3687.596680	2106.196289	38.789539
731.816101	1102.050537	3686.951416	2109.056885	38.957253
732.136475	1101.620239	3687.231201	2111.401367	39.053871
732.456787	1100.587891	3693.103027	2115.702881	39.155605
732.777039	1100.308472	3696.952881	2120.757568	39.298759
733.097229	1099.082397	3700.393799	2126.328125	39.489532
733.417480	1099.684692	3703.340088	2127.510986	39.476280
733.737549	1096.501465	3693.898193	2125.639648	39.621910
734.057617	1097.877930	3682.671143	2120.993896	39.582119
734.377563	1097.684326	3662.690430	2111.895996	39.540321
734.697510	1098.802856	3634.579590	2103.486572	39.620354
735.017517	1099.125488	3600.575195	2089.571045	39.594860
735.337341	1096.329346	3568.678711	2077.440430	39.683350
735.657166	1097.533691	3538.072754	2064.062256	39.603077
735.976868	1096.716431	3502.692139	2048.877686	39.574852
736.296631	1096.716553	3467.418701	2035.778931	39.611149
736.616272	1098.458740	3430.403320	2024.100098	39.693970
736.935852	1097.856445	3399.023438	2014.335449	39.826706
737.255371	1099.813721	3378.870361	2004.506348	39.695927
737.574829	1100.996582	3354.071045	2000.699585	39.932236
737.894348	1102.330200	3338.284180	1997.860474	40.051373
738.213745	1103.362427	3335.122803	1997.709839	40.073631
738.533081	1104.803589	3335.595947	1997.968018	40.037987
738.852356	1108.911621	3337.295166	1997.107544	39.858307
739.171570	1108.330811	3338.133789	2003.323486	40.137749
739.490784	1108.115723	3339.123291	2007.001465	40.290573
739.809937	1107.620972	3336.907959	2009.109009	40.438400
740.129028	1108.847046	3333.402344	2011.023315	40.555355
740.447998	1108.115723	3327.681152	2015.023804	40.859715
740.767029	1107.986694	3314.045166	2017.647949	41.234684
741.085999	1105.835938	3303.506348	2014.722778	41.356831
741.404846	1103.362427	3284.750977	2012.335449	41.669468
741.723633	1101.039551	3259.070313	2008.593018	42.054707
742.042358	1101.792358	3229.152588	2002.678223	42.347591
742.361145	1100.867676	3199.106201	1998.699341	42.789780
742.679810	1102.050659	3167.618164	1990.634033	43.018852
742.998413	1104.588501	3138.711670	1978.675415	42.971188
743.316956	1106.287598	3109.288330	1969.104248	43.076202
743.635498	1103.964844	3084.317383	1958.479004	43.149597
743.953979	1106.029663	3061.798584	1945.251831	42.910088
744.272400	1105.341309	3038.871338	1932.583618	42.784042
744.590698	1105.900513	3018.245117	1923.292114	42.742905
744.909058	1105.771484	2999.102539	1916.775024	42.834747
745.227356	1107.470703	2980.326416	1909.462402	42.821861
745.545471	1106.137085	2962.990723	1902.665894	42.896694
745.863586	1105.190674	2947.634277	1896.815674	42.966038
746.181702	1103.599121	2936.062988	1890.492188	42.941807
746.499756	1101.405396	2924.835693	1890.449585	43.272518
746.817810	1100.480469	2914.683838	1889.782715	43.506824
747.135742	1102.394653	2908.962891	1891.223511	43.664494
747.453613	1102.416138	2897.305420	1897.030762	44.270954
747.771423	1103.534546	2891.218750	1904.623047	44.811523
748.089233	1104.072388	2885.540527	1911.871216	45.344555
748.406982	1106.201660	2886.422119	1919.850708	45.704960
748.724609	1106.352173	2889.626953	1925.012817	45.907711
749.042236	1107.814697	2892.078613	1934.497681	46.331879
749.359863	1107.147949	2895.412354	1942.240601	46.698502
749.677429	1107.018799	2894.982178	1953.553955	47.346336
749.994873	1108.352417	2896.057861	1967.254639	48.044952
750.312256	1107.449097	2897.305420	1974.997314	48.470272
750.629639	1105.448730	2894.079346	1984.181274	49.128788
750.946960	1102.394653	2897.348389	1992.160645	49.570415
751.264282	1102.695801	2897.735596	1999.344482	49.951466
751.581482	1099.447998	2897.843018	2006.291748	50.425171
751.898621	1098.394043	2894.767334	2011.432007	50.826740
752.215698	1097.641357	2890.250488	2018.508301	51.370201
752.532715	1095.555054	2890.186035	2026.251099	51.860023
752.849792	1096.608887	2888.551514	2035.305786	52.384315
753.166748	1096.437012	2887.540771	2041.607788	52.770298
753.483643	1097.125122	2882.809082	2049.694824	53.344810
753.800476	1097.404785	2885.948975	2060.578125	53.852364
754.117310	1097.254272	2889.734619	2073.203125	54.446838
754.434082	1100.200806	2885.948975	2080.300781	54.884556
754.750732	1099.405029	2888.422363	2094.065918	55.598171
755.067383	1102.244141	2887.885010	2103.787354	56.088726
755.383911	1102.179565	2885.002930	2112.648926	56.678040
755.700562	1103.448608	2881.453857	2125.424561	57.478794
756.016968	1105.642456	2881.453857	2134.522461	57.938587
756.333435	1105.169189	2877.754395	2146.179932	58.728390
756.649780	1106.158569	2875.431396	2162.482910	59.703869
756.966064	1103.706543	2878.184570	2173.129639	60.266911
757.282410	1105.599487	2877.625244	2189.690674	61.178070
757.598633	1105.233643	2882.271240	2202.380615	61.740223
757.914795	1104.825073	2896.337402	2222.146484	62.367496
758.230896	1104.545532	2901.757568	2240.535889	63.208477
758.546936	1102.308716	2909.822998	2262.108398	64.165451
758.862976	1102.523804	2918.791992	2282.949463	64.991814
759.178894	1103.018555	2928.728516	2302.457275	65.697113
759.494812	1103.083008	2934.729492	2323.556885	66.632614
759.810669	1102.996948	2944.429443	2342.763428	67.326195
760.126526	1102.760254	2954.323242	2361.324951	67.973099
760.442261	1103.642090	2959.721680	2381.649902	68.855225
760.757935	1104.222778	2963.442627	2394.017090	69.372879
761.073608	1105.212158	2963.077148	2410.599854	70.262787
761.389160	1106.223145	2959.635742	2427.096436	71.267090
761.704712	1106.115601	2961.743408	2439.377441	71.849640
762.020203	1108.029785	2966.690186	2454.175049	72.425560
762.335571	1110.051636	2980.756348	2479.532959	73.206711
762.650940	1108.459961	3021.342041	2525.689209	74.088692
762.966370	1108.481445	3090.081787	2594.730225	75.002449
763.281677	1108.094238	3187.427246	2685.580078	75.864990
763.596863	1107.104980	3289.590088	2782.710449	76.775116
763.911987	1108.330933	3376.978027	2870.076172	77.656212
764.227112	1108.201782	3447.481201	2944.343506	78.491768
764.542236	1109.513794	3499.917725	3001.920410	79.166817
764.857178	1108.760986	3536.459961	3044.183594	79.722511
765.172119	1111.234497	3560.376709	3077.220215	80.272423
765.487061	1110.954834	3571.862305	3104.341553	81.002098
765.801880	1108.223389	3565.560303	3115.095947	81.668594
766.116760	1108.180298	3531.813965	3099.523682	82.163544
766.431458	1104.653076	3459.460693	3058.464844	82.971184
766.746155	1105.319824	3352.996094	2988.735840	83.793915
767.060791	1105.513428	3239.605713	2905.994385	84.367531
767.375427	1105.835938	3135.850586	2824.801758	84.677505
767.689941	1104.610107	3043.925537	2763.740479	85.552376
768.004395	1102.889282	2969.206787	2711.454590	86.189262
768.318848	1101.878418	2905.542725	2667.556396	86.805397
768.633179	1098.845825	2852.310303	2631.552002	87.410164
768.947632	1098.200562	2804.261475	2596.795166	87.839455
769.261841	1100.179321	2762.600342	2567.415039	88.258972
769.576111	1100.372925	2719.992920	2542.121338	89.017700
769.890259	1103.534546	2686.526367	2516.656006	89.269028
770.204285	1104.588379	2656.543945	2496.244873	89.671158
770.518433	1104.502441	2624.927246	2476.758545	90.254784
770.832458	1105.921997	2599.913330	2462.391113	90.794975
771.146362	1105.857544	2576.641602	2444.625244	91.024086
771.460205	1106.008057	2551.283936	2431.978516	91.745148
771.774109	1107.771606	2528.399414	2423.719482	92.631432
772.087952	1109.083618	2510.547607	2414.901367	93.175262
772.401672	1109.320190	2493.814453	2407.760498	93.784447
772.715332	1108.008301	2477.532959	2400.383301	94.366684
773.028992	1108.180298	2460.993164	2394.232178	95.065025
773.342590	1107.922241	2446.754883	2386.317139	95.485786
773.656128	1105.685425	2431.699219	2378.445313	95.983910
773.969604	1105.986450	2420.729980	2373.003662	96.369911
774.283020	1102.889404	2403.114990	2373.154053	97.695709
774.596375	1101.061157	2390.769287	2367.820068	98.220589
774.909729	1102.437622	2380.531494	2363.432617	98.662155
775.223022	1101.577393	2369.756104	2357.281250	99.016319
775.536194	1099.319092	2355.560791	2350.570557	99.602768
775.849304	1097.318848	2342.247314	2343.752686	100.120918
776.162476	1096.286255	2329.364014	2335.773193	100.519768
776.475525	1096.436890	2321.836182	2327.342041	100.449310
776.788513	1094.909790	2311.791992	2322.352295	100.867813
777.101440	1097.103638	2304.285400	2317.921631	101.129593
777.414307	1097.727417	2294.628662	2314.458740	101.656784
777.727173	1098.222168	2295.811523	2308.307617	101.043434
778.039978	1097.963989	2290.090088	2305.876953	101.324265
778.352722	1097.856567	2282.777588	2302.607666	101.673538
778.665405	1099.254517	2278.863281	2299.725830	101.768600
778.977966	1103.104614	2273.507568	2299.252930	102.199699
779.290649	1106.502808	2272.689941	2298.865479	102.244537
779.603149	1107.771729	2269.915527	2302.521973	102.805717
779.915588	1108.890137	2269.463867	2306.049072	103.152336
780.227966	1110.159058	2265.011719	2306.113525	103.559052
780.540405	1110.825806	2259.763916	2303.295898	103.788887
780.852722	1110.847290	2255.225586	2303.661865	104.232544
781.164917	1111.836670	2247.590576	2299.273926	104.550575
781.477173	1112.890503	2240.987549	2296.499756	104.920868
781.789246	1112.740112	2233.330322	2291.187256	105.163078
782.101379	1111.449585	2226.791992	2281.809570	104.932800
782.413452	1109.148193	2217.801758	2275.378662	105.193405
782.725403	1107.341553	2204.552734	2269.033691	105.876808
783.037292	1105.857422	2196.981934	2257.784912	105.572510
783.349182	1104.115356	2183.259521	2245.761963	105.791855
783.661072	1104.480957	2174.269287	2239.202148	106.069695
783.972839	1104.739014	2166.483887	2234.986572	106.451897
784.284546	1105.534790	2158.654541	2225.114258	106.310745
784.596191	1104.007813	2148.072510	2220.318115	106.919647
784.907898	1105.319824	2140.910400	2211.069824	106.774826
785.219421	1105.599487	2138.888672	2205.563721	106.452698
785.530884	1103.685059	2133.296631	2205.886475	107.050217
785.842346	1101.899902	2129.511230	2199.992920	106.858788
786.153748	1103.706543	2128.285400	2194.229004	106.436165
786.465149	1105.749878	2125.016113	2192.486572	106.619514
786.776428	1106.760742	2123.596680	2190.099365	106.540161
787.087646	1105.018677	2123.596680	2190.357422	106.554306
787.398804	1102.738892	2128.242188	2197.455078	106.749161
787.709961	1101.233276	2137.082275	2208.983398	106.941277
788.021057	1103.405640	2154.181152	2224.039063	106.648224
788.332031	1104.179932	2168.505127	2241.310059	106.840477
788.643005	1104.007690	2180.033447	2255.957031	107.055923
788.953918	1105.663940	2188.249756	2269.593262	107.513817
789.264832	1107.147949	2198.917480	2281.336670	107.549141
789.575623	1107.298462	2206.423828	2289.488037	107.557304
789.886353	1106.739258	2209.219727	2296.585693	107.924492
790.197083	1106.352051	2213.435547	2301.403320	107.945900
790.507690	1106.115601	2211.392334	2301.790527	108.178787
790.818359	1107.900635	2200.466309	2293.337891	108.500320
791.128845	1108.137329	2187.346436	2280.368652	108.619484
791.439331	1105.126221	2166.375977	2263.958008	109.195007
791.749756	1104.782104	2145.491699	2246.600830	109.715401
792.060120	1103.964844	2123.144775	2229.544922	110.439781
792.370483	1104.846558	2106.927490	2207.477539	110.034126
792.680786	1103.147339	2090.302246	2189.432373	110.042000
792.990967	1100.781494	2074.170898	2174.204834	110.276871
793.301086	1100.502075	2062.943604	2159.514648	110.033966
793.611267	1101.426880	2046.511597	2148.416504	110.782623
793.921326	1102.824951	2038.596802	2138.436768	110.669266
794.231323	1101.276245	2035.133911	2132.479248	110.424004
794.541260	1101.297729	2027.778198	2125.833496	110.583633
794.851074	1102.265625	2027.907104	2121.596191	110.121529
795.161011	1098.265137	2031.240967	2120.757568	109.594742
795.470764	1098.071533	2039.284790	2125.015869	109.108574
795.780518	1096.953125	2045.221436	2136.178711	109.591934
796.090149	1099.405151	2051.867432	2145.340820	109.813866
796.399780	1099.405029	2061.093994	2156.181152	109.887520
796.709412	1100.007324	2064.169922	2164.935059	110.451050
797.018860	1099.232910	2071.396729	2172.720947	110.422546
797.328308	1099.964233	2072.385986	2177.904541	110.851112
797.637756	1097.985474	2073.375244	2182.571533	111.195145
797.947205	1097.619751	2074.558350	2187.217529	111.531860
798.256470	1099.211426	2069.503662	2185.389160	111.943359
798.565674	1103.018433	2063.288086	2182.915771	112.457718
798.874817	1103.921753	2053.007324	2176.162354	112.976181
799.183960	1105.319824	2041.629395	2163.967285	113.065964
799.493103	1104.717529	2030.810669	2152.697021	113.161346
799.802124	1106.524170	2017.411255	2141.297607	113.600624
800.111084	1105.900391	2009.431763	2130.823242	113.435226
800.419983	1106.610229	2000.828491	2119.273193	113.245613
800.728821	1106.158569	1994.246948	2110.218506	113.058563
801.037659	1110.847290	1983.901611	2099.464600	113.236633
801.346436	1113.041016	1975.319946	2090.732178	113.384560
801.655151	1112.395874	1968.351563	2083.914063	113.500992
801.963745	1112.137817	1960.952759	2074.407715	113.366280
802.272400	1111.686035	1954.586304	2064.685791	113.061981
802.580933	1108.782471	1948.757446	2058.319336	113.043472
802.889404	1110.395630	1939.681152	2053.974854	113.782188
803.197815	1108.244751	1933.056763	2047.178223	113.836060
803.506226	1107.879272	1927.916138	2041.672363	113.872086
803.814575	1107.664185	1922.775879	2036.940674	114.006027
804.122864	1106.008057	1917.463379	2032.294922	114.151306
804.431030	1104.459351	1914.172729	2025.734863	113.777977
804.739197	1103.620605	1916.108521	2024.659424	113.360313
805.047241	1103.943237	1915.699707	2026.122192	113.602905
805.355408	1103.147461	1918.151611	2027.175903	113.377144
805.663391	1104.760498	1919.184082	2031.090332	113.740547
805.971313	1105.427368	1921.098389	2031.907715	113.585052
806.279175	1104.330444	1924.969604	2034.746826	113.377037
806.587036	1105.341309	1926.711792	2040.790649	113.888840
806.894836	1105.018677	1926.840698	2041.693848	113.975426
807.202576	1103.168945	1925.292236	2043.392944	114.365326
807.510193	1104.093750	1923.464111	2040.854980	114.326958
807.817810	1101.211670	1923.743774	2039.220581	114.039185
808.125427	1099.684570	1918.001099	2030.939941	113.801361
808.432922	1096.436890	1911.183105	2022.379639	113.647995
808.740295	1096.630371	1904.515625	2014.744141	113.644081
809.047729	1096.910034	1897.159790	2003.903931	113.338852
809.355103	1098.867310	1889.890137	1995.085938	113.298706
809.662415	1097.748901	1881.760132	1981.105591	112.671432
809.969604	1097.318848	1873.199951	1966.050049	111.967049
810.276794	1097.146729	1862.832886	1955.661743	112.123619
810.583923	1097.662964	1855.520264	1943.208618	111.570564
810.890991	1097.576904	1849.755981	1935.487183	111.397713
811.197998	1100.265381	1838.636597	1927.142090	111.986588
811.505005	1100.545044	1829.732056	1920.259644	112.414864
811.811829	1102.781860	1824.849731	1911.419800	111.989189
812.118713	1103.427002	1818.332520	1904.472656	112.049164
812.425537	1100.007324	1810.654419	1898.558105	112.369530
812.732300	1098.286621	1803.857910	1892.557373	112.571297
813.038940	1097.555298	1795.985962	1889.438599	113.380371
813.345581	1098.673706	1790.673462	1884.599121	113.573074
813.652100	1100.028809	1789.146362	1879.888794	113.167915
813.958740	1101.491333	1781.769165	1877.673462	114.097816
814.265137	1101.383789	1776.757690	1873.587036	114.337143
814.571533	1101.469849	1774.047729	1869.199585	114.147339
814.877930	1102.523682	1773.122925	1868.037964	114.153763
815.184265	1103.964722	1768.821411	1867.693726	114.871223
815.490540	1104.093872	1763.143066	1868.188232	115.938896
815.796692	1106.631836	1762.971069	1868.489380	116.076797
816.102844	1107.771851	1762.368774	1872.275269	116.789948
816.408936	1108.976196	1766.799683	1874.425781	116.360939
816.714966	1108.438477	1770.885986	1879.652222	116.418846
817.020935	1109.556763	1771.810669	1885.351929	117.144669
817.326843	1107.513550	1777.725708	1889.180176	116.629730
817.632690	1106.459595	1779.919434	1893.998169	116.939201
817.938477	1104.911011	1788.436646	1899.353638	116.227188
818.244263	1103.018433	1796.803223	1903.676636	115.404404
818.549988	1102.459106	1803.621216	1911.699219	115.414124
818.855652	1100.889038	1818.934814	1921.980103	114.350800
819.161194	1098.738281	1837.646851	1941.229980	114.018394
819.466797	1097.254150	1861.133667	1965.447754	113.655830
819.772278	1095.339966	1890.406250	1997.408691	113.458305
820.077698	1095.038818	1919.743042	2031.176270	113.511902
820.383057	1092.285889	1959.597534	2073.848145	113.172958
820.688354	1094.092529	2009.173706	2127.059082	112.882507
820.993652	1094.329102	2079.547852	2205.068604	112.740395
821.298828	1096.415527	2214.726074	2358.851318	112.887764
821.604004	1097.899536	2465.746338	2651.188477	113.557228
821.909058	1096.824097	2844.459961	3073.133545	113.084740
822.214111	1099.060913	3285.396240	3580.831055	113.512772
822.519165	1100.630981	3705.297852	4060.245361	113.627357
822.824036	1102.007446	4058.803955	4467.456543	113.820801
823.128906	1105.749878	4342.279785	4796.357422	114.029770
823.433716	1106.007935	4574.932129	5064.885742	114.124077
823.738525	1109.234253	4759.578613	5279.299805	114.237595
824.043213	1106.954346	4896.929199	5448.309570	114.548401
824.347900	1105.685425	4988.102051	5557.591797	114.668434
824.652466	1104.437988	4985.327637	5571.163574	115.095406
824.957031	1104.308838	4849.633301	5419.316895	115.210518
825.261536	1103.599121	4573.706543	5115.386230	115.609886
825.565979	1103.706787	4218.823730	4710.282227	115.776566
825.870300	1101.448364	3871.468750	4313.201172	115.946899
826.174622	1104.050781	3593.305420	3993.290039	116.068451
826.478821	1102.093628	3401.754883	3772.725586	116.131538
826.783142	1102.007690	3285.482178	3639.289307	116.203857
827.087280	1101.018188	3221.195068	3565.860840	116.256477
827.391357	1103.018433	3180.673584	3513.446289	116.016731
827.695435	1106.373657	3141.894775	3468.279053	116.034424
827.999451	1107.771606	3105.331055	3416.552246	115.580078
828.303406	1106.954468	3065.025146	3371.278076	115.640549
828.607239	1106.309082	3027.084961	3327.293945	115.629570
828.911011	1104.373535	2986.262451	3278.707031	115.539948
829.214844	1106.481323	2942.364502	3231.389648	115.743103
829.518616	1101.770996	2881.453613	3159.982910	115.650505
829.822205	1099.168457	2785.355713	3047.840088	115.566742
830.125793	1098.802856	2655.705322	2897.176270	115.509705
830.429382	1097.684448	2507.988037	2726.058350	115.462654
830.732849	1098.179077	2366.185791	2563.758545	115.581367
831.036316	1097.125122	2247.095703	2424.494141	115.426346
831.339661	1096.996094	2152.202148	2311.641113	115.109749
831.642944	1097.963989	2073.009521	2217.049072	114.772598
831.946228	1098.888794	2006.377441	2141.146973	114.850822
832.249512	1099.082520	1956.866089	2082.236572	114.615631
832.552673	1098.802856	1924.474976	2043.242310	114.384323
832.855774	1102.373169	1913.957520	2032.079590	114.554504
833.158813	1104.244263	1932.303955	2057.114990	115.072708
833.461731	1105.384277	1976.287842	2111.186523	115.489510
833.764771	1105.341309	2036.574707	2176.893555	115.068062
834.067627	1103.792603	2098.690186	2244.041748	114.609703
834.370422	1103.233398	2151.191162	2303.597412	114.543167
834.673157	1101.792358	2194.078369	2354.399414	114.677567
834.975891	1100.846069	2228.921143	2394.189209	114.650452
835.278564	1101.749390	2257.096680	2424.644531	114.501945
835.581177	1102.394653	2272.690186	2445.291992	114.748566
835.883728	1103.556030	2277.465088	2449.034180	114.615196
836.186218	1104.308838	2261.549316	2431.612793	114.695602
836.488647	1105.448730	2222.920654	2383.198242	114.342873
836.791077	1104.739014	2158.977295	2306.952393	114.036209
837.093384	1104.760498	2080.171631	2219.995361	114.334854
837.395630	1105.513306	2004.011719	2134.371826	114.508659
837.697815	1106.782349	1935.186035	2057.781738	114.799026
838.000061	1108.653564	1870.919922	1988.009766	115.360748
838.302124	1111.621582	1817.149902	1925.808472	115.401024
838.604126	1109.685913	1769.058105	1870.038208	115.314583
838.906128	1108.309448	1729.268066	1824.978882	115.413399
839.208069	1105.255127	1694.123779	1788.630127	116.048798
839.510010	1102.824829	1674.121460	1762.024902	115.386658
839.811829	1102.114990	1658.850708	1747.506714	115.924255
840.113586	1101.577271	1653.064941	1741.936035	116.114792
840.415222	1103.168945	1650.699219	1739.462769	116.211624
840.716919	1103.104492	1648.032349	1737.225830	116.367943
841.018555	1104.072388	1644.848877	1736.516113	116.951042
841.320068	1100.286865	1644.203613	1736.107544	116.896690
841.621521	1096.651978	1642.418457	1731.741455	116.366524
841.922974	1099.620117	1639.471924	1730.300415	116.824707
842.224365	1100.738525	1635.191772	1723.138184	116.455399
842.525635	1102.158081	1626.932861	1712.771362	116.357208
842.826965	1100.738525	1612.565308	1696.274658	116.355019
843.128174	1102.029053	1592.476929	1673.777344	116.576767
843.429260	1101.684814	1573.872314	1644.870605	115.036041
843.730408	1100.308228	1551.912842	1619.275879	114.916374
844.031433	1099.146851	1530.770386	1594.369629	114.734886
844.332397	1097.856323	1515.349121	1569.463379	112.961723
844.633362	1099.491089	1498.572754	1547.675659	112.303978
844.934204	1100.846191	1484.571045	1531.652222	112.269516
845.235046	1100.007324	1472.634155	1515.219971	111.428543
845.535828	1101.534424	1456.997925	1501.626953	112.555168
845.836487	1100.781738	1448.093506	1490.657837	112.255363
846.137146	1101.878540	1434.887451	1481.323364	113.944344
846.437744	1102.545288	1427.854370	1471.128540	113.302475
846.738281	1103.448486	1417.229248	1464.052246	114.922203
847.038757	1104.287476	1411.551147	1457.836670	115.063782
847.339172	1104.911011	1405.765503	1453.943604	116.013756
847.639526	1103.900269	1403.034058	1450.416382	115.839844
847.939819	1105.147583	1398.732422	1446.695435	116.337021
848.240112	1106.825317	1394.538452	1443.404785	116.984398
848.540283	1107.449097	1390.408936	1438.307373	116.927643
848.840393	1105.964966	1389.118408	1434.177856	115.913437
849.140564	1107.104858	1386.429932	1430.177246	115.661797
849.440552	1108.567505	1385.118042	1424.993896	114.419014
849.740540	1108.847168	1380.644409	1423.144043	115.636520
850.040405	1109.126709	1377.203003	1420.756714	116.246758
850.340210	1108.675049	1371.869019	1413.056763	115.649200
850.640137	1110.180542	1369.847168	1406.238892	114.014786
850.939819	1109.148193	1366.083130	1401.291992	113.703415
851.239502	1110.524658	1361.717163	1396.431274	113.819725
851.539185	1110.589111	1355.802368	1393.527588	115.384659
851.838745	1108.545898	1352.404175	1391.226196	115.919914
852.138245	1106.653198	1350.984619	1390.279785	116.082733
852.437744	1104.911133	1346.446411	1385.591064	116.206596
852.737122	1104.308838	1346.683105	1379.289185	113.452782
853.036499	1104.739014	1346.855103	1376.342651	112.179092
853.335815	1103.340942	1345.758179	1374.815552	111.986511
853.635010	1104.050781	1346.833618	1371.546387	110.178963
853.934204	1105.341309	1349.285522	1371.954956	109.292877
854.233276	1108.373901	1348.855347	1371.696777	109.498207
854.532410	1106.868408	1351.758911	1369.180420	107.113998
854.831482	1106.007935	1352.726807	1366.814453	105.709999
855.130371	1106.438232	1350.726563	1362.813965	104.948006
855.429260	1108.804077	1347.113159	1361.093384	105.866425
855.728088	1109.987061	1345.478516	1359.351196	105.890945
856.026855	1109.750488	1342.940552	1360.340698	107.461784
856.325623	1108.911621	1341.822144	1356.813232	106.436417
856.624329	1107.986816	1339.972534	1354.038696	106.063377
856.922913	1105.771362	1337.692505	1357.716675	108.634041
857.221436	1104.846558	1332.939331	1357.781128	110.891090
857.519958	1102.781738	1328.917480	1355.286255	111.660599
857.818420	1102.695801	1325.519165	1357.372559	114.295357
858.116821	1101.534302	1325.088989	1356.533813	114.065834
858.415161	1101.512817	1325.454590	1358.125244	114.588905
858.713379	1099.964355	1326.809692	1356.125000	112.923035
859.011658	1100.867676	1329.863770	1354.791504	110.885658
859.309814	1100.372925	1327.605347	1353.371948	111.339317
859.607910	1098.630737	1325.519043	1353.587036	112.370842
859.905945	1100.050293	1325.669678	1351.092163	111.267860
860.203979	1099.727661	1323.475830	1348.747803	111.294830
860.501953	1099.663086	1320.206543	1343.671997	110.639832
860.799744	1100.243774	1315.582397	1342.811646	112.644852
861.097656	1099.792114	1315.152222	1339.908081	111.495102
861.395325	1100.007324	1313.990723	1337.456177	110.966019
861.693115	1100.673950	1311.753906	1335.950684	111.463326
861.990784	1100.716919	1310.872192	1334.531006	111.257774
862.288330	1102.158081	1306.484497	1335.907471	114.399986
862.585815	1101.641846	1306.484497	1335.713989	114.269241
862.883301	1100.932129	1305.710205	1335.154663	114.378716
863.180786	1100.738403	1303.537964	1335.670776	115.844620
863.478149	1103.319458	1304.204590	1335.606445	115.631744
863.775452	1102.910767	1307.086792	1335.283691	113.810097
864.072693	1102.007446	1309.968750	1335.434326	112.245346
864.369873	1102.373169	1307.624390	1337.305542	114.460892
864.667114	1102.717285	1306.183350	1339.262695	116.257919
864.964111	1102.652832	1306.613525	1339.864990	116.302879
865.261169	1104.717529	1305.387573	1340.252075	117.374046
865.558105	1102.502197	1304.613281	1338.509888	116.771278
865.855042	1104.158325	1302.849609	1339.907837	118.651161
866.151917	1105.620972	1301.666626	1339.327148	119.210075
866.448730	1106.502686	1304.183105	1339.434692	117.832611
866.745422	1103.878662	1302.806519	1338.940063	118.164146
867.042114	1103.556152	1302.612915	1342.273926	119.924477
867.338806	1105.921875	1302.225952	1341.177002	119.842201
867.635376	1105.792847	1304.484253	1337.563599	116.648605
867.931824	1104.803467	1303.236694	1336.531128	116.778656
868.228271	1103.749634	1302.591553	1336.229980	116.917168
868.524658	1103.276489	1302.871094	1334.875000	116.034454
868.821045	1103.470093	1305.753174	1337.219360	115.555519
869.117310	1102.717285	1305.710205	1334.444946	114.155540
869.413574	1101.598877	1306.613403	1333.735107	113.229164
869.709717	1100.286987	1303.150635	1334.444946	115.426277
870.005859	1101.448364	1302.161255	1333.455566	115.591583
870.301880	1102.437622	1300.483765	1332.315552	116.072914
870.597900	1100.157715	1299.903076	1329.627075	114.880943
870.893860	1099.835083	1299.902954	1330.207886	115.147324
871.189636	1098.630737	1300.612793	1328.551758	113.832397
871.485535	1100.093262	1300.333130	1329.820801	114.726173
871.781311	1099.899780	1299.107178	1330.960693	115.990128
872.077026	1102.158081	1295.536987	1329.691772	117.662102
872.372681	1102.029053	1295.429443	1330.659668	118.216209
872.668274	1102.459106	1296.719849	1331.240356	117.770195
872.963806	1104.072144	1297.881348	1331.907104	117.556313
873.259338	1103.642090	1300.010498	1333.434082	117.020859
873.554688	1102.157959	1300.956909	1333.864136	116.553017
873.850098	1103.964722	1300.634277	1335.563354	117.760284
874.145447	1102.459106	1298.978149	1334.272827	117.959930
874.440674	1106.760742	1298.849121	1333.584595	118.083069
874.735840	1108.373901	1299.386841	1331.412231	116.766083
875.031006	1107.234009	1300.182617	1329.928223	115.416336
875.326050	1104.179810	1300.182617	1329.691528	115.055351
875.621094	1104.610107	1300.849365	1329.283081	114.489311
875.916077	1104.588501	1299.300903	1328.422729	114.956329
876.210999	1103.900391	1300.075073	1328.014160	114.241943
876.505798	1103.964722	1299.924561	1325.841797	113.225792
876.800598	1104.007935	1300.118042	1323.024292	111.680298
877.095337	1105.534912	1298.741577	1321.325073	111.688774
877.390015	1109.858032	1298.311401	1320.937866	112.006401
877.684692	1107.126465	1299.558838	1323.949097	112.674721
877.979187	1104.588501	1300.139526	1323.110229	111.746651
878.273804	1103.964722	1299.687988	1324.400757	112.626381
878.568237	1105.255127	1304.548706	1326.616089	111.072800
878.862610	1105.298096	1310.226807	1329.777588	109.540283
879.156921	1105.040161	1314.958618	1336.531128	110.276611
879.451172	1106.115479	1317.819214	1340.553223	110.738594
879.745422	1104.825073	1324.336060	1349.393066	111.414925
880.039612	1105.642456	1335.434326	1363.373169	112.158325
880.333679	1104.050781	1354.748535	1386.730957	112.757362
880.627686	1102.265747	1386.946167	1422.455933	112.473557
880.921692	1103.620728	1434.801514	1481.151367	113.995331
881.215698	1104.502441	1511.972290	1572.474487	114.848267
881.509460	1103.276489	1622.695801	1696.274658	114.165596
881.803345	1101.942993	1750.367554	1842.529297	114.213181
882.097046	1100.437500	1884.534668	2001.301636	114.891899
882.390808	1101.577393	2013.023804	2148.179932	114.828751
882.684448	1101.878540	2128.027100	2281.271729	114.933960
882.978027	1102.158081	2228.620361	2399.200439	115.142990
883.271545	1099.813599	2315.383789	2504.353271	115.545746
883.565002	1098.716675	2382.854492	2581.265869	115.450943
883.858398	1097.512329	2424.558350	2634.670410	115.833069
884.151733	1096.393921	2439.592285	2646.951660	115.437737
884.445068	1096.286377	2415.374512	2619.335449	115.462265
884.738281	1098.308105	2349.688965	2543.562500	115.492767
885.031433	1098.587769	2249.848633	2431.333496	115.764008
885.324585	1100.501953	2134.995850	2297.338867	115.692993
885.617676	1099.276001	2024.035645	2167.494385	115.513084
885.910645	1097.533813	1920.603394	2046.554688	115.302628
886.203552	1098.329590	1828.484741	1937.143311	114.881569
886.496521	1100.243896	1741.032837	1831.689331	114.147636
886.789368	1099.405029	1665.152466	1742.818237	113.727997
887.082153	1100.329956	1598.241089	1663.969482	113.200829
887.374817	1098.974976	1540.234009	1597.617188	113.004417
887.667480	1096.372314	1489.281372	1538.986328	112.650497
887.960083	1097.727417	1447.986084	1493.797974	113.079445
888.252625	1098.867310	1418.218872	1461.191895	113.456337
888.545166	1097.555420	1393.807251	1437.640503	114.795944
888.837524	1100.630981	1371.288330	1416.132446	116.568596
889.129883	1100.738525	1354.920776	1400.216553	117.820198
889.422241	1101.383667	1337.477661	1383.031616	119.294838
889.714478	1109.599854	1316.141602	1371.030029	126.574982
890.006714	1098.716797	1306.441406	1369.610596	130.410065
890.298767	1126.870850	1291.299683	1347.134644	133.956909
890.590881	1096.350830	1287.750977	1343.822388	129.295380
890.882935	1098.953369	1280.416748	1324.658691	124.380646
>>>>>End Processed Spectral Data<<<<<
