Jaz Data File
++++++++++++++++++++++++++++++++++++
Date: Mon Apr 22 19:26:20 2019
User: jaz
Dark Spectrum Present: Yes
Reference Spectrum Present: Yes
Processed Spectrum Present: Yes
Spectrometers: JAZA2928
Integration Time (usec): 40000 (JAZA2928)
Spectra Averaged: 10 (JAZA2928)
Boxcar Smoothing: 5 (JAZA2928)
Correct for Electrical Dark: No (JAZA2928)
Strobe/Lamp Enabled: Yes (JAZA2928)
Correct for Detector Non-linearity: No (JAZA2928)
Correct for Stray Light: No (JAZA2928)
Number of Pixels in Processed Spectrum: 2048
>>>>>Begin Processed Spectral Data<<<<<
W	D	R	S	P
190.104553	0.000000	0.000000	0.000000	0.000000
190.488098	0.000000	0.000000	0.000000	0.000000
190.871613	1077.423828	1084.994751	1052.818604	-324.996368
191.255096	1080.499390	1079.079956	1079.789795	49.991402
191.638535	0.000000	0.000000	0.000000	0.000000
192.021942	903.294739	908.865295	896.670166	-118.921196
192.405334	1004.317993	1010.039124	999.435608	-85.339523
192.788696	1107.599609	1112.288330	1102.007446	-119.268417
193.172012	1111.471069	1116.052246	1109.298706	-47.419331
193.555313	1116.138306	1118.654663	1112.911987	-128.213837
193.938568	1122.375488	1122.956299	1115.213379	-1233.123169
194.321793	1125.386597	1126.505127	1120.418335	-444.177673
194.704987	1126.655640	1129.473267	1123.881104	-98.470673
195.088150	1127.429810	1129.387207	1127.257935	-8.780792
195.471298	1126.505249	1131.710083	1127.257935	14.461279
195.854401	1127.494629	1132.054199	1128.419434	20.282715
196.237457	1129.064575	1128.957031	1128.096802	899.886475
196.620499	1129.043091	1130.441040	1127.257935	-127.698219
197.003494	1127.171875	1130.140137	1126.806152	-12.321105
197.386475	1126.999878	1131.129395	1125.644897	-32.812084
197.769424	1126.419067	1132.441406	1126.677246	4.287017
198.152344	1123.365112	1134.527832	1127.494507	36.992729
198.535217	1120.934570	1135.947266	1126.397583	36.389286
198.918076	1121.149658	1138.098022	1126.462158	31.345207
199.300903	1121.838013	1139.668091	1127.322388	30.759119
199.683670	1123.838257	1144.421387	1127.193359	16.300255
200.066422	1123.730591	1145.023560	1127.322388	16.868465
200.449142	1121.967041	1147.884277	1126.612793	17.925337
200.831848	1122.719849	1149.174683	1128.118286	20.406242
201.214508	1123.537109	1149.002686	1128.806519	20.692284
201.597137	1122.891846	1150.120972	1128.828003	21.800762
201.979736	1122.612183	1152.874146	1127.559082	16.346922
202.362274	1122.633789	1149.088623	1128.032349	20.406704
202.744827	1121.257202	1147.625977	1127.322388	23.001394
203.127319	1119.171021	1146.055908	1125.644775	24.079531
203.509796	1116.525513	1142.786621	1124.139282	28.992567
203.892227	1113.406860	1136.872070	1122.440186	38.496674
204.274643	1110.567749	1137.151489	1119.493652	33.576553
204.657013	1110.804321	1134.850342	1116.955688	25.581644
205.039352	1108.223389	1132.441406	1113.578979	22.114077
205.421661	1104.932617	1135.796753	1109.255737	14.006937
205.803940	1103.964722	1135.516968	1109.621460	17.928164
206.186188	1103.771118	1133.344727	1109.685913	20.000248
206.568405	1101.921387	1134.248169	1108.158691	19.294542
206.950592	1103.297974	1136.119263	1106.631714	10.157249
207.332748	1101.340698	1133.882446	1105.986450	14.276282
207.714859	1099.964233	1136.269775	1103.857056	10.722391
208.096939	1099.598511	1137.732422	1104.846558	13.762152
208.478989	1098.695190	1137.280762	1106.201538	19.453768
208.861008	1098.931763	1138.291626	1111.858154	32.841557
209.243011	1099.318848	1140.765137	1114.718750	37.156288
209.624969	1098.652222	1139.410034	1117.450317	46.121452
210.006897	1098.480103	1140.377808	1118.246216	47.177078
210.388794	1097.469238	1141.345703	1118.052612	46.912106
210.770645	1097.426270	1141.603882	1119.149414	49.172291
211.152481	1097.146606	1140.549927	1122.268066	57.879120
211.534286	1097.404785	1143.152344	1123.278931	56.558529
211.916061	1097.490723	1141.238159	1125.946045	65.044548
212.297791	1097.985474	1142.119995	1125.709473	62.817039
212.679489	1097.125122	1143.195435	1124.741455	59.943882
213.061157	1093.662354	1142.313599	1121.386353	56.985180
213.442795	1093.812988	1142.786743	1120.052856	53.579449
213.824402	1094.071167	1142.829712	1119.149414	51.433544
214.205963	1094.823730	1141.496216	1117.342773	48.249077
214.587524	1093.705444	1141.195190	1118.504150	52.219074
214.969025	1094.952881	1142.937378	1118.547241	49.170799
215.350510	1093.554932	1145.948486	1116.202881	43.226593
215.731949	1092.823730	1144.572021	1117.729858	48.129372
216.113358	1092.221558	1147.841309	1116.826538	44.237846
216.494736	1093.361328	1147.239014	1117.923462	45.588696
216.876083	1093.124878	1145.324707	1119.106323	49.773048
217.257401	1094.823975	1146.765747	1122.827271	53.912861
217.638702	1094.910034	1149.389771	1123.558594	52.585716
218.019943	1095.791748	1151.841553	1127.408569	56.408440
218.401169	1094.006592	1152.142700	1129.989502	61.894253
218.782349	1094.372070	1154.788208	1130.548706	59.879093
219.163498	1094.436646	1158.272583	1131.667114	58.322113
219.544632	1098.286621	1158.659668	1134.032837	59.208897
219.925705	1102.416138	1162.423584	1133.817871	52.329727
220.306778	1103.104370	1163.929199	1135.151489	52.687561
220.687805	1101.082520	1168.661011	1135.689087	51.209442
221.068802	1101.770996	1176.640503	1137.990479	48.376816
221.449738	1101.985840	1182.598145	1140.463867	47.732201
221.830673	1099.340454	1186.620117	1144.916016	52.217846
222.211563	1098.394043	1191.932617	1146.141968	51.046238
222.592438	1098.759766	1200.084106	1146.292480	46.911446
222.973267	1099.060913	1206.730225	1146.787231	44.326759
223.354065	1097.727417	1211.655518	1150.594116	46.403564
223.734848	1093.791382	1217.828369	1154.422607	48.881569
224.115555	1090.436157	1228.302734	1158.487549	49.360325
224.496262	1092.694458	1238.497559	1164.122681	48.989510
224.876923	1092.178223	1246.498535	1168.682495	49.574986
225.257568	1091.016846	1255.639526	1175.457520	51.293465
225.638168	1088.113281	1265.554688	1179.178345	51.321201
226.018723	1090.479248	1277.147583	1183.566040	49.867477
226.399277	1092.328735	1291.923462	1191.050781	49.461250
226.779785	1094.759277	1309.861206	1201.245605	49.505054
227.160263	1093.726929	1333.046875	1214.903198	50.633587
227.540695	1093.103149	1363.351685	1228.668457	50.163197
227.921112	1091.984741	1408.217529	1248.584839	49.520512
228.301483	1092.501099	1466.525879	1277.857300	49.557198
228.681824	1092.006348	1543.460083	1315.862061	49.585526
229.062134	1095.339966	1631.212891	1359.480347	49.291607
229.442413	1095.404419	1713.438232	1398.560425	49.051685
229.822647	1099.469604	1782.349976	1428.951294	48.248814
230.202881	1100.846069	1832.011841	1451.147583	47.910000
230.583054	1100.674072	1871.651245	1469.063843	47.782188
230.963196	1098.372681	1904.106934	1484.226929	47.888523
231.343292	1097.576782	1930.819946	1495.325073	47.734959
231.723404	1097.146606	1946.348755	1503.326050	47.830711
232.103439	1098.372681	1940.670654	1497.755493	47.415859
232.483459	1098.630737	1913.054321	1483.882813	47.303650
232.863434	1096.802612	1867.650757	1460.245483	47.148441
233.243393	1091.662109	1814.934814	1430.994507	46.916245
233.623306	1092.909668	1767.294434	1404.926758	46.266926
234.003174	1092.242920	1737.763672	1389.505493	46.050041
234.383041	1089.382324	1724.880371	1383.612305	46.299118
234.762848	1090.930786	1717.675293	1381.031372	46.286896
235.142639	1091.855591	1711.932495	1378.213745	46.181072
235.522385	1094.135498	1708.491089	1378.557861	46.296047
235.902115	1095.834839	1710.212036	1376.299561	45.650249
236.281799	1095.641113	1716.384766	1383.268188	46.335888
236.661438	1096.178833	1729.009888	1390.021729	46.433071
237.041077	1095.576660	1740.946899	1393.828613	46.214085
237.420654	1098.458618	1747.033569	1400.861816	46.625790
237.800217	1097.963989	1755.550659	1402.517944	46.313889
238.179733	1098.351074	1761.530029	1405.034302	46.244415
238.559219	1100.372925	1769.509644	1406.647461	45.771591
238.938690	1098.265137	1782.220703	1410.174683	45.603775
239.318100	1096.630493	1800.158325	1415.336670	45.301147
239.697510	1097.017578	1821.687988	1420.756714	44.673985
240.076859	1097.168091	1847.260986	1434.263794	44.940529
240.456177	1098.178955	1891.976440	1450.115356	44.335793
240.835464	1096.651855	1948.263184	1469.472534	43.778267
241.214722	1097.275757	2024.745728	1500.099976	43.432590
241.593948	1097.963989	2132.092285	1539.223022	42.669659
241.973129	1097.856567	2259.333740	1595.165527	42.816936
242.352295	1097.297363	2406.750000	1654.656616	42.564293
242.731415	1097.856323	2553.327148	1714.792969	42.387428
243.110519	1095.877686	2674.417480	1764.175659	42.336468
243.489578	1095.877686	2769.440186	1801.922241	42.188122
243.868607	1096.049805	2835.943115	1828.205078	42.080471
244.247604	1097.684448	2886.035156	1844.185425	41.742428
244.626541	1098.910278	2917.953125	1857.584839	41.707348
245.005493	1099.792114	2945.719727	1866.811768	41.551991
245.384369	1100.114868	2970.948975	1875.114136	41.425335
245.763229	1100.609497	2998.909180	1886.577759	41.403805
246.142059	1102.760254	3052.937500	1902.730469	41.020386
246.520859	1102.351685	3154.261475	1944.025757	41.019062
246.899612	1100.889038	3308.366943	2004.957886	40.954830
247.278336	1101.942993	3494.518799	2076.536865	40.734089
247.657043	1102.394653	3664.540039	2145.857178	40.726124
248.035690	1101.405273	3803.309570	2204.853760	40.839657
248.414322	1100.867676	3921.002197	2254.279297	40.899170
248.792908	1099.297607	4008.367432	2289.638672	40.918270
249.171478	1099.835205	4061.642822	2310.673584	40.881737
249.550003	1101.104126	4068.827148	2315.319336	40.914032
249.928482	1100.588013	4035.661621	2300.349365	40.876701
250.306961	1099.620117	3942.724854	2264.538818	40.973473
250.685364	1099.362061	3780.747803	2199.992920	41.047092
251.063782	1100.652466	3577.324951	2116.821533	41.029613
251.442123	1101.168701	3379.536865	2040.016357	41.207020
251.820450	1102.416138	3241.261963	1983.084473	41.174934
252.198761	1102.201050	3168.177490	1950.048096	41.038559
252.576996	1101.276245	3111.740479	1928.217163	41.131840
252.955246	1101.921509	3063.153809	1912.193726	41.314445
253.333420	1101.039673	3017.792969	1895.073486	41.425980
253.711578	1100.437500	2990.306152	1882.448364	41.379112
254.089706	1100.308472	2965.872803	1874.920410	41.521587
254.467804	1098.716675	2948.537354	1866.661621	41.514561
254.845871	1099.856567	2933.202148	1856.509644	41.271709
255.223877	1098.996338	2907.005371	1844.314453	41.223141
255.601898	1100.480347	2870.334229	1827.882324	41.099548
255.979828	1098.265137	2818.026367	1807.643311	41.248642
256.357727	1098.630737	2763.826172	1783.812378	41.147221
256.735657	1098.480225	2741.457764	1771.853882	40.984959
257.113525	1098.071411	2758.492432	1774.348755	40.729267
257.491333	1098.480347	2812.197754	1796.459106	40.728931
257.869110	1097.835083	2891.799072	1829.000854	40.756992
258.246887	1097.684448	3007.146729	1873.930908	40.652622
258.624573	1097.232788	3174.092285	1941.100708	40.631924
259.002289	1097.275757	3402.142090	2033.778931	40.631565
259.379944	1098.566284	3704.265625	2155.557373	40.564587
259.757538	1098.415649	4068.052490	2300.113037	40.466141
260.135162	1099.318970	4428.032715	2439.807617	40.270470
260.512665	1100.760010	4715.939453	2554.639160	40.215961
260.890228	1099.792114	4904.715332	2626.024414	40.112038
261.267700	1101.147095	5016.622070	2665.685303	39.957813
261.645142	1101.942871	5083.039063	2688.354492	39.848614
262.022552	1103.211914	5120.677734	2700.786133	39.765720
262.399994	1102.717285	5125.904297	2699.581787	39.691532
262.777313	1103.857178	5080.715820	2677.557617	39.571445
263.154602	1104.911011	4961.216309	2624.884277	39.415276
263.531921	1102.824707	4760.159180	2540.164063	39.300190
263.909149	1102.459106	4480.791504	2424.300537	39.127037
264.286377	1101.491333	4192.583984	2307.769775	39.024338
264.663574	1099.878174	3972.277100	2217.930664	38.923996
265.040710	1101.921509	3845.767090	2165.515625	38.762897
265.417816	1099.168457	3795.782227	2144.114990	38.750324
265.794891	1099.340576	3797.803955	2142.458984	38.656013
266.171936	1099.104004	3841.508057	2152.804443	38.422508
266.548950	1099.921265	3899.708740	2170.892822	38.251884
266.925934	1101.383789	3954.425049	2189.755127	38.147758
267.302887	1100.329834	4020.368896	2210.876221	38.031902
267.679810	1102.308594	4091.776367	2236.341553	37.934277
268.056671	1102.652710	4176.216797	2264.431152	37.799065
268.433502	1101.749512	4266.658203	2295.101563	37.705734
268.810333	1101.684814	4350.517578	2324.094482	37.626118
269.187073	1099.039429	4426.677734	2349.667480	37.583054
269.563843	1101.362305	4488.276855	2368.981689	37.426968
269.940521	1100.588013	4541.895996	2385.736572	37.344769
270.317200	1099.899780	4605.710449	2407.287598	37.292027
270.693848	1099.146973	4713.035645	2446.883789	37.293259
271.070435	1097.705933	4884.304199	2502.740234	37.105450
271.447021	1095.856323	5082.371582	2570.103271	36.980843
271.823547	1093.920532	5251.705078	2626.841553	36.868698
272.200043	1092.931152	5382.043457	2673.277344	36.845531
272.576538	1096.501465	5496.100098	2712.378906	36.727837
272.952972	1096.630493	5606.415527	2749.265137	36.645531
273.329346	1099.641602	5698.835449	2778.451660	36.502270
273.705688	1097.490723	5766.155762	2798.755371	36.440067
274.082062	1094.221558	5809.837891	2811.466553	36.416130
274.458344	1094.049438	5806.568848	2807.960693	36.369320
274.834595	1093.060059	5748.755371	2780.215332	36.238525
275.210846	1093.748413	5652.141113	2743.286133	36.186829
275.587006	1095.361572	5538.041016	2701.065918	36.142700
275.963165	1096.135864	5473.688965	2674.159180	36.048065
276.339294	1095.920898	5444.265625	2657.856201	35.920227
276.715393	1094.329224	5440.265137	2655.318115	35.918358
277.091461	1093.942017	5437.361816	2650.672607	35.841125
277.467438	1092.931152	5444.867676	2653.361084	35.855991
277.843445	1094.372192	5460.289551	2657.318604	35.798809
278.219452	1097.361816	5481.604004	2662.889160	35.708050
278.595337	1097.275757	5513.521484	2670.632080	35.626560
278.971191	1097.318726	5547.805664	2682.074463	35.608593
279.347046	1096.716553	5572.969727	2690.118164	35.596775
279.722870	1095.727051	5607.189453	2694.527344	35.438625
280.098663	1096.953125	5631.234863	2700.463379	35.364151
280.474396	1098.222168	5683.004883	2712.808838	35.216209
280.850098	1099.727539	5749.679688	2728.208740	35.021461
281.225800	1099.770630	5852.595703	2761.374268	34.960335
281.601440	1099.125488	5983.816895	2802.820313	34.878250
281.977051	1098.996338	6153.665527	2857.300293	34.785740
282.352600	1100.265503	6314.695801	2909.199219	34.690918
282.728149	1102.996948	6448.454590	2951.935791	34.588974
283.103668	1104.007935	6547.198242	2982.778320	34.515976
283.479156	1102.588379	6633.079590	3009.620361	34.482143
283.854553	1102.502319	6720.380859	3041.817871	34.520428
284.229950	1098.480347	6819.877930	3073.499268	34.519871
284.605347	1096.501587	6916.750000	3108.750977	34.573254
284.980652	1094.888428	7007.728516	3136.238281	34.524017
285.355988	1092.500977	7095.331055	3157.896973	34.407036
285.731201	1094.243042	7173.210938	3181.189941	34.330612
286.106445	1094.888428	7234.551758	3200.396729	34.293549
286.481659	1094.802368	7309.464355	3222.786133	34.241344
286.856781	1091.490112	7380.248047	3238.788330	34.145031
287.231934	1093.942017	7436.878418	3256.360840	34.091763
287.607025	1097.254272	7468.667480	3260.361084	33.950191
287.982056	1100.114868	7471.699707	3257.693848	33.862518
288.357086	1103.577637	7457.009766	3248.252197	33.756157
288.732086	1104.201294	7427.049805	3232.679932	33.663284
289.107025	1104.373413	7399.476563	3218.721191	33.587181
289.481934	1106.137085	7369.988770	3208.031982	33.555950
289.856842	1104.395020	7367.579590	3199.278076	33.447571
290.231659	1103.276611	7383.409668	3200.375244	33.392586
290.606506	1102.717407	7399.583984	3199.902100	33.305210
290.981262	1104.029419	7420.532715	3208.827881	33.322208
291.355988	1103.341064	7460.408203	3217.151367	33.251343
291.730713	1101.276245	7499.531250	3230.056152	33.271255
292.105377	1100.996582	7523.040527	3240.035889	33.307766
292.480011	1102.115112	7531.126953	3247.305664	33.367344
292.854614	1101.340698	7544.418945	3255.823242	33.438713
293.229187	1102.093628	7573.949707	3275.051025	33.575493
293.603729	1104.115356	7617.632324	3299.398438	33.703499
293.978241	1103.771240	7652.840332	3323.121094	33.888020
294.352692	1101.964478	7681.683105	3346.780273	34.117203
294.727081	1101.061035	7708.525391	3373.127930	34.386368
295.101501	1098.609253	7761.865234	3405.432861	34.620068
295.475830	1095.512085	7848.133301	3452.320313	34.902122
295.850189	1095.038940	7991.893555	3519.704834	35.156113
296.224457	1091.683716	8203.381836	3609.285889	35.400856
296.598694	1089.403809	8463.350586	3716.783447	35.630573
296.972931	1089.016602	8729.597656	3825.936523	35.820835
297.347107	1088.586426	8935.946289	3918.034180	36.056046
297.721283	1087.898071	9061.037109	3978.579102	36.255245
298.095367	1089.769409	9098.051758	4009.743896	36.461933
298.469452	1092.737427	9080.931641	4015.078125	36.583248
298.843475	1092.199707	9037.636719	4008.281494	36.701340
299.217529	1094.587158	8972.337891	3997.850098	36.853958
299.591492	1096.436890	8892.672852	3978.364258	36.965626
299.965424	1098.135864	8774.442383	3942.295410	37.051147
300.339325	1102.179565	8594.958008	3882.997559	37.113308
300.713196	1103.513062	8374.263672	3805.955566	37.168686
301.087036	1105.448730	8138.126465	3726.504883	37.269676
301.460815	1104.975586	7937.585938	3650.968994	37.262383
301.834564	1103.771118	7774.533203	3592.746338	37.311707
302.208282	1103.125854	7649.119141	3542.868896	37.270786
302.582001	1103.297974	7531.814453	3500.605713	37.291771
302.955658	1103.297974	7423.306641	3461.740723	37.317081
303.329254	1100.889038	7332.241699	3428.102295	37.346844
303.702820	1101.276245	7248.747070	3395.130371	37.313786
304.076416	1100.910645	7176.007813	3368.374756	37.323914
304.449921	1099.491089	7122.452637	3345.210205	37.285965
304.823395	1099.749146	7062.165527	3325.422852	37.328384
305.196838	1099.426636	7003.878418	3298.000000	37.235859
305.570251	1097.921021	6932.858887	3270.641602	37.236397
305.943604	1096.479980	6870.485840	3243.864014	37.190540
306.316986	1096.350952	6825.146973	3230.056152	37.245262
306.690277	1094.759399	6800.218750	3217.667236	37.208355
307.063507	1094.200073	6800.971680	3213.430420	37.135365
307.436768	1095.038940	6830.372070	3218.807129	37.029552
307.809937	1092.328979	6880.078125	3232.938232	36.985180
308.183136	1093.081665	6951.484375	3253.801025	36.882393
308.556244	1091.640747	7039.259277	3285.396240	36.884602
308.929321	1092.802002	7145.702637	3319.314209	36.784222
309.302399	1091.963379	7244.488770	3353.942383	36.765049
309.675446	1093.597778	7353.104492	3388.871094	36.668598
310.048401	1095.167969	7449.568359	3421.843506	36.615185
310.421356	1093.662354	7553.624512	3450.814697	36.488640
310.794281	1094.049438	7670.606445	3485.313232	36.360416
311.167145	1096.264771	7784.168945	3525.640869	36.324921
311.539978	1100.437378	7864.242676	3553.279053	36.264229
311.912781	1102.588135	7910.098145	3565.538330	36.179901
312.285553	1101.147095	7899.667480	3562.269287	36.200848
312.658295	1102.308472	7851.940430	3539.879150	36.114128
313.031006	1101.254639	7786.728027	3509.768555	36.026077
313.403656	1101.792358	7728.354980	3486.109375	35.981201
313.776276	1101.663208	7684.435547	3473.096924	36.024845
314.148865	1102.029053	7688.415527	3470.537598	35.960667
314.521454	1105.040161	7694.351563	3469.375977	35.881382
314.893982	1103.147583	7677.596680	3463.461670	35.901318
315.266449	1101.018311	7620.212891	3436.597900	35.826199
315.638885	1095.899292	7539.772949	3402.529053	35.795704
316.011322	1094.544189	7452.429199	3370.202881	35.792702
316.383667	1094.759277	7385.065430	3342.414063	35.732040
316.756042	1094.458130	7327.316895	3320.949219	35.721828
317.128326	1094.049561	7277.848145	3303.377197	35.727676
317.500610	1094.329102	7220.959473	3280.922607	35.689987
317.872833	1094.157104	7145.443848	3250.209229	35.629650
318.245087	1094.608643	7047.453613	3212.785156	35.582592
318.617218	1093.468872	6948.925293	3180.609131	35.644363
318.989319	1094.780762	6877.604980	3154.390625	35.615986
319.361420	1097.684448	6835.212402	3142.432129	35.638130
319.733490	1100.889160	6807.423828	3131.699951	35.587460
320.105530	1099.792114	6786.690430	3121.698975	35.553772
320.477509	1100.566528	6764.343750	3110.299316	35.483967
320.849457	1101.512817	6742.125488	3102.857666	35.480984
321.221375	1099.899780	6731.974609	3095.480469	35.432426
321.593231	1100.200806	6729.565430	3094.620117	35.428852
321.965088	1100.802979	6731.823242	3093.566162	35.389023
322.336884	1102.459106	6746.857422	3094.039307	35.284187
322.708618	1100.265381	6786.432617	3101.201416	35.189541
323.080414	1101.254761	6844.159668	3117.203369	35.103291
323.452118	1102.179565	6947.871582	3144.712402	34.940823
323.823761	1099.899658	7085.007324	3192.589111	34.964943
324.195343	1102.846313	7229.239258	3240.616455	34.894432
324.566925	1101.061035	7372.160645	3287.590088	34.866756
324.938507	1099.189941	7509.081055	3328.949951	34.786240
325.310059	1099.964355	7620.814453	3367.170166	34.768562
325.681519	1099.663208	7736.399902	3398.506836	34.638165
326.052948	1098.802856	7852.091797	3434.102539	34.580185
326.424408	1094.458130	7916.723145	3458.901611	34.657745
326.795776	1097.275757	7936.703613	3466.751709	34.644363
327.167084	1095.705688	7906.787109	3452.857666	34.607601
327.538391	1093.490356	7825.529785	3425.241943	34.636627
327.909668	1095.296997	7721.903320	3382.569580	34.516499
328.280884	1095.813232	7621.073730	3346.931152	34.498512
328.652100	1096.802734	7529.922363	3311.829590	34.431614
329.023254	1097.856445	7453.332520	3281.675537	34.361221
329.394348	1098.200562	7390.443359	3255.822510	34.290192
329.765442	1097.834839	7310.196777	3231.152588	34.339886
330.136475	1098.351074	7226.937988	3197.793701	34.256554
330.507538	1099.878174	7159.510742	3170.371094	34.168621
330.878479	1097.619873	7106.687500	3152.239990	34.191998
331.249420	1098.673706	7078.705078	3142.862549	34.183582
331.620331	1097.168091	7080.082520	3140.475098	34.152367
331.991211	1096.092896	7099.223633	3149.186035	34.200375
332.362030	1094.716309	7135.120605	3157.466309	34.149204
332.732819	1093.877441	7177.190430	3174.780518	34.206741
333.103577	1092.888184	7218.851074	3191.427490	34.256481
333.474304	1093.103271	7245.328125	3207.429688	34.366859
333.845001	1093.103271	7266.728516	3216.678223	34.397537
334.215668	1095.318481	7282.107422	3227.023438	34.455757
334.586273	1096.221802	7310.819824	3234.723389	34.410938
334.956818	1097.490845	7336.048340	3242.208496	34.378426
335.327362	1096.437012	7358.523926	3251.693115	34.417538
335.697876	1099.534058	7373.127930	3262.576416	34.478523
336.068329	1099.964355	7380.677734	3264.189209	34.458263
336.438751	1099.964233	7374.892578	3266.770264	34.531170
336.809174	1103.233521	7369.923828	3266.899170	34.526447
337.179504	1103.018433	7381.000000	3272.018066	34.549313
337.549896	1103.469971	7413.283203	3279.632080	34.488533
337.920135	1105.814331	7465.849609	3296.623535	34.446495
338.290375	1104.115234	7520.394043	3314.303223	34.446571
338.660614	1103.835815	7566.679688	3330.218994	34.448975
339.030792	1104.975708	7605.523438	3345.188965	34.461918
339.400940	1107.556641	7646.431152	3356.501709	34.393459
339.771027	1106.309204	7679.596680	3362.481201	34.323341
340.141083	1106.825317	7714.590820	3375.106445	34.327507
340.511139	1107.965210	7751.798828	3386.355225	34.293304
340.881134	1105.642456	7796.600098	3397.561035	34.253967
341.251068	1105.599243	7825.829590	3404.765869	34.212612
341.621002	1104.373291	7840.841797	3409.476318	34.218269
341.990875	1101.233154	7849.101563	3412.271973	34.248428
342.360718	1099.964233	7858.995117	3411.971191	34.206188
342.730560	1100.136230	7879.062012	3424.682129	34.290771
343.100311	1097.834961	7921.325195	3436.963379	34.280525
343.470032	1097.383301	7984.279297	3461.912598	34.333744
343.839752	1097.125122	8068.074707	3496.002930	34.412498
344.209442	1098.028564	8161.526855	3529.512695	34.423229
344.579041	1096.523071	8264.938477	3567.839844	34.475079
344.948639	1095.813232	8365.853516	3607.113281	34.543140
345.318176	1098.845825	8455.262695	3643.118164	34.585758
345.687714	1098.286621	8552.909180	3679.101318	34.620327
346.057190	1098.200562	8625.068359	3708.158447	34.675220
346.426636	1100.136230	8678.581055	3733.301025	34.745449
346.796051	1099.297363	8703.013672	3738.441406	34.708607
347.165405	1099.985596	8698.797852	3742.721680	34.778278
347.534729	1099.598633	8657.610352	3731.042725	34.816620
347.904083	1099.770752	8593.752930	3706.351807	34.782322
348.273315	1099.211426	8511.786133	3680.047607	34.817001
348.642517	1099.491089	8436.227539	3652.947510	34.803711
349.011719	1099.749146	8361.422852	3628.578369	34.824329
349.380890	1096.781006	8308.834961	3612.511963	34.882309
349.749969	1097.942505	8260.614258	3597.714600	34.899994
350.119049	1101.147217	8238.375977	3588.853027	34.855347
350.488098	1102.308716	8235.384766	3589.412354	34.867195
350.857117	1103.534668	8238.632813	3598.058838	34.961315
351.226074	1102.179565	8268.012695	3605.694580	34.936832
351.595001	1102.910889	8313.008789	3621.545410	34.932045
351.963867	1102.910889	8365.336914	3646.602539	35.025372
352.332764	1099.813721	8432.206055	3672.046631	35.080402
352.701538	1099.146973	8501.246094	3699.662598	35.132137
353.070343	1100.738525	8591.322266	3732.655518	35.136337
353.439056	1100.867676	8685.075195	3772.574951	35.227245
353.807770	1101.233276	8792.744141	3808.708496	35.200825
354.176453	1100.243896	8898.822266	3850.606201	35.267483
354.545105	1096.781128	9022.581055	3894.052490	35.293240
354.913666	1096.931641	9173.868164	3946.725586	35.283104
355.282227	1098.652344	9334.511719	4005.765381	35.298237
355.650757	1095.770264	9501.285156	4070.375244	35.388733
356.019226	1095.899292	9686.339844	4131.824219	35.340736
356.387695	1097.275757	9897.461914	4208.435547	35.353336
356.756104	1097.727417	10147.257813	4301.801758	35.405972
357.124451	1096.458496	10424.130859	4403.964844	35.459076
357.492828	1095.856201	10681.905273	4491.437988	35.422119
357.861084	1096.716553	10896.963867	4575.577637	35.497688
358.229401	1096.436890	11065.134766	4637.843262	35.525261
358.597595	1100.028687	11179.878906	4684.322266	35.558994
358.965759	1098.308105	11285.785156	4724.585449	35.595444
359.333923	1097.576904	11397.927734	4765.601563	35.610680
359.702057	1099.770630	11556.829102	4822.984863	35.604797
360.070129	1098.329590	11736.874023	4901.080566	35.745029
360.438141	1100.695435	11947.889648	4982.166016	35.783176
360.806122	1102.717163	12195.875977	5076.564941	35.822506
361.174133	1104.502441	12475.975586	5184.255371	35.877087
361.542053	1106.201660	12787.734375	5303.280762	35.929180
361.909912	1104.782104	13059.295898	5406.648438	35.985287
362.277771	1104.072266	13289.452148	5489.669434	35.990646
362.645599	1102.523560	13435.535156	5540.041016	35.980812
363.013367	1101.684937	13487.328125	5560.172363	35.997219
363.381134	1101.878540	13454.527344	5555.828125	36.056637
363.748810	1100.824707	13341.522461	5514.511230	36.057476
364.116455	1101.792480	13151.778320	5441.770996	36.016460
364.484100	1100.136353	12877.100586	5345.070801	36.044388
364.851715	1097.426270	12500.042969	5203.612305	36.010910
365.219238	1095.641113	12017.209961	5030.881348	36.031822
365.586761	1094.071167	11496.714844	4842.599609	36.034382
365.954224	1092.587036	11045.755859	4674.191895	35.984570
366.321686	1092.113770	10687.518555	4548.262207	36.018787
366.689117	1093.275269	10452.758789	4470.854980	36.087242
367.056458	1096.824097	10290.286133	4417.773438	36.122944
367.423737	1097.533936	10172.636719	4373.380859	36.097080
367.791077	1098.630859	10063.891602	4335.827637	36.108227
368.158295	1099.362061	9978.162109	4305.802734	36.113445
368.525543	1099.899658	9899.936523	4275.282715	36.083748
368.892700	1102.222534	9826.788086	4252.462402	36.107697
369.259827	1103.233521	9775.147461	4232.868164	36.089321
369.626953	1104.567017	9742.949219	4220.587402	36.071808
369.994019	1105.083130	9712.256836	4210.026855	36.073906
370.361053	1105.814453	9696.125977	4202.219727	36.045319
370.728027	1104.201294	9690.146484	4194.068359	35.987503
371.094971	1102.545166	9704.665039	4197.466797	35.978592
371.461914	1099.792114	9732.152344	4209.209961	36.020485
371.828796	1099.964355	9764.951172	4222.437012	36.035519
372.195618	1099.383545	9808.225586	4235.298828	36.008408
372.562408	1099.598633	9839.046875	4248.418945	36.029968
372.929199	1098.867310	9875.116211	4261.409668	36.035240
373.295898	1096.544434	9908.454102	4270.249512	36.016087
373.662598	1097.576782	9953.125977	4283.906738	35.981171
374.029236	1098.093018	9996.227539	4306.619141	36.058411
374.395844	1098.802856	10033.027344	4320.104980	36.055756
374.762421	1100.566528	10077.097656	4339.655762	36.083977
375.128967	1099.555542	10134.545898	4361.422363	36.102604
375.495483	1103.448608	10215.415039	4391.232422	36.082043
375.861908	1101.125854	10344.572266	4440.227539	36.123989
376.228333	1100.609497	10513.862305	4507.677246	36.194374
376.594727	1098.265137	10751.439453	4596.914063	36.243507
376.961090	1097.770386	11016.181641	4696.969238	36.288059
377.327393	1101.211792	11269.352539	4791.518555	36.292835
377.693665	1099.620117	11461.527344	4871.937012	36.405624
378.059906	1100.243896	11601.781250	4924.738770	36.418430
378.426086	1101.190186	11685.490234	4960.227051	36.460011
378.792267	1100.781494	11717.967773	4980.466797	36.541557
379.158386	1100.200806	11706.439453	4979.391113	36.574612
379.524445	1098.006958	11674.457031	4972.702148	36.635120
379.890503	1099.964233	11605.610352	4951.731445	36.663780
380.256531	1100.996582	11494.047852	4917.663086	36.723255
380.622467	1102.953857	11331.468750	4864.517090	36.775265
380.988403	1103.255005	11130.669922	4797.970703	36.846146
381.354279	1101.104126	10936.257813	4737.210449	36.970512
381.720154	1099.426636	10784.260742	4683.504395	37.007114
382.085968	1100.738525	10692.442383	4651.780273	37.022011
382.451752	1099.491089	10663.148438	4650.640625	37.131710
382.817474	1100.028809	10677.924805	4662.534668	37.195076
383.183197	1101.512939	10747.503906	4695.915527	37.263176
383.548859	1101.211792	10817.749023	4731.102539	37.357864
383.914490	1099.491211	10895.329102	4768.269043	37.452415
384.280060	1099.276123	10966.520508	4802.294434	37.528393
384.645599	1098.802856	11036.163086	4839.416992	37.641930
385.011108	1096.781128	11120.754883	4881.593750	37.757607
385.376617	1095.426147	11219.089844	4925.943359	37.837261
385.742035	1095.684082	11332.500977	4977.605957	37.921185
386.107452	1093.361328	11437.826172	5032.322266	38.077957
386.472778	1093.210815	11530.417969	5083.576172	38.232117
386.838135	1090.823364	11626.559570	5132.765137	38.364113
387.203430	1090.328735	11692.825195	5171.242676	38.490124
387.568634	1089.446777	11741.561523	5206.064453	38.646011
387.933838	1091.296509	11771.308594	5234.583984	38.794785
388.299042	1091.855713	11806.624023	5262.351074	38.922867
388.664124	1089.403809	11833.939453	5286.246094	39.060249
389.029236	1092.931152	11843.661133	5307.840332	39.205795
389.394318	1094.114136	11856.931641	5324.187012	39.302654
389.759308	1094.157104	11859.254883	5345.802246	39.494717
390.124298	1094.415161	11897.474609	5376.537109	39.638050
390.489227	1096.178833	11985.441406	5422.736328	39.732330
390.854126	1096.350830	12100.639648	5485.668945	39.887341
391.218964	1097.748901	12246.528320	5567.162598	40.088814
391.583771	1097.641479	12404.568359	5649.753418	40.259499
391.948578	1094.372192	12542.930664	5727.375488	40.468006
392.313354	1092.436401	12655.502930	5791.813965	40.641273
392.678040	1094.522705	12759.365234	5852.660645	40.790413
393.042694	1091.554565	12871.121094	5915.550293	40.952232
393.407349	1093.705322	12997.244141	5998.914551	41.207989
393.771942	1094.630371	13137.218750	6075.483887	41.360325
394.136505	1093.985107	13233.640625	6140.223145	41.568218
394.501007	1091.145996	13250.416016	6169.129883	41.762245
394.865479	1092.113770	13191.269531	6164.892578	41.926716
395.229919	1090.715820	13059.208984	6126.694824	42.076969
395.594360	1094.264771	12900.953125	6083.012207	42.253571
395.958710	1098.007080	12755.558594	6039.565430	42.389336
396.323029	1098.953491	12622.725586	6003.517578	42.560402
396.687286	1099.254517	12495.181641	5968.933105	42.731747
397.051544	1100.932129	12373.447266	5932.197266	42.858803
397.415771	1098.888794	12218.524414	5883.868652	43.031807
397.779938	1099.426636	12045.384766	5833.540039	43.249878
398.144043	1100.803101	11876.718750	5775.081543	43.377087
398.508148	1099.383545	11731.345703	5733.721191	43.588737
398.872192	1099.039429	11617.761719	5710.406738	43.839611
399.236237	1099.297485	11542.204102	5698.964355	44.045853
399.600189	1097.060669	11490.456055	5691.264648	44.203110
399.964111	1095.920776	11451.311523	5690.404297	44.368034
400.328003	1094.866943	11420.555664	5695.566406	44.555859
400.691925	1093.081787	11410.338867	5708.148438	44.731525
401.055695	1093.554932	11395.217773	5720.214355	44.911770
401.419495	1093.404297	11390.186523	5739.033691	45.117294
401.783234	1092.522583	11416.532227	5761.122070	45.220798
402.146942	1093.490356	11432.211914	5791.685059	45.442707
402.510620	1096.071167	11475.981445	5828.355957	45.590805
402.874237	1096.910034	11545.322266	5874.469238	45.725216
403.237823	1097.942505	11646.604492	5941.423828	45.915600
403.601379	1097.899536	11783.717773	6026.574707	46.123516
403.964874	1097.598389	11953.416016	6125.468262	46.314983
404.328369	1098.845825	12137.160156	6232.018555	46.503231
404.691772	1101.899902	12298.964844	6329.859375	46.690449
405.055176	1100.394409	12461.372070	6430.215820	46.913403
405.418549	1100.760010	12608.122070	6512.806641	47.031166
405.781860	1100.953613	12710.436523	6581.977051	47.211609
406.145142	1100.372925	12804.383789	6641.876953	47.347050
406.508362	1096.910034	12858.259766	6682.784668	47.493481
406.871552	1096.071289	12872.971680	6706.100098	47.635868
407.234741	1095.533569	12855.744141	6706.078125	47.707855
407.597870	1096.286377	12795.436523	6693.023438	47.838837
407.960938	1099.082397	12714.909180	6673.171387	47.987015
408.323975	1098.759766	12628.490234	6643.167480	48.087921
408.686981	1099.318970	12567.297852	6631.574707	48.240898
409.049957	1099.405029	12529.293945	6625.939453	48.351601
409.412903	1100.050293	12531.552734	6638.435547	48.448448
409.775787	1099.942749	12562.309570	6671.751465	48.609581
410.138611	1100.652466	12608.766602	6710.186035	48.744160
410.501434	1103.900269	12662.795898	6753.869141	48.879833
410.864227	1104.609985	12703.165039	6793.206543	49.045738
411.226929	1104.502441	12739.277344	6837.277832	49.272762
411.589630	1104.696045	12787.863281	6865.560547	49.309097
411.952271	1103.835815	12802.446289	6886.875000	49.433556
412.314911	1103.083008	12808.704102	6907.371582	49.585480
412.677490	1101.577393	12819.889648	6919.846680	49.651089
413.040009	1104.545532	12832.342773	6931.525391	49.685207
413.402496	1102.523682	12817.157227	6931.740234	49.760128
413.764984	1102.652832	12790.637695	6926.620605	49.828674
414.127380	1100.953613	12777.344727	6923.545410	49.866367
414.489777	1100.329956	12783.412109	6934.536133	49.937218
414.852112	1101.104248	12831.394531	6959.765137	49.944725
415.214386	1100.932129	12908.696289	6992.758301	49.897900
415.576660	1100.222290	13008.063477	7048.701660	49.954308
415.938904	1098.695190	13161.844727	7121.183105	49.924671
416.301086	1101.211792	13343.672852	7210.033203	49.898640
416.663208	1101.512817	13534.774414	7303.765137	49.884354
417.025299	1097.964111	13747.102539	7411.176270	49.910213
417.387390	1097.641479	13993.647461	7534.417480	49.912941
417.749420	1097.383301	14281.855469	7685.726563	49.970474
418.111389	1097.576904	14608.261719	7847.596680	49.960602
418.473328	1096.738037	14982.374023	8027.489258	49.913097
418.835266	1094.673340	15378.788086	8225.879883	49.924034
419.197144	1096.781128	15816.389648	8453.994141	49.982395
419.558960	1096.092896	16293.288086	8704.283203	50.063122
419.920746	1095.684204	16814.921875	8980.769531	50.162010
420.282471	1095.899292	17418.888672	9298.571289	50.252266
420.644226	1094.608887	18049.289063	9626.655273	50.322666
421.005920	1092.393433	18652.761719	9946.178711	50.419128
421.367523	1092.909668	19205.388672	10247.420898	50.542568
421.729126	1092.436401	19689.105469	10502.355469	50.600021
422.090668	1091.640503	20103.029297	10737.675781	50.738194
422.452179	1092.414917	20437.283203	10941.054688	50.910862
422.813660	1092.156860	20766.935547	11139.875977	51.069031
423.175110	1089.382324	21078.695313	11325.834961	51.209629
423.536469	1089.016724	21354.472656	11490.348633	51.325432
423.897858	1088.328369	21574.929688	11632.688477	51.469543
424.259155	1086.242065	21651.544922	11701.730469	51.618439
424.620453	1086.134644	21666.791016	11745.284180	51.792076
424.981689	1091.188965	21630.486328	11761.522461	51.950825
425.342865	1092.092285	21562.048828	11752.919922	52.080364
425.704041	1091.769653	21472.617188	11740.660156	52.249496
426.065186	1093.769775	21369.960938	11708.827148	52.352325
426.426239	1094.565674	21230.953125	11655.121094	52.445137
426.787262	1096.522949	20996.988281	11551.473633	52.536217
427.148254	1096.888672	20678.130859	11405.821289	52.646980
427.509216	1098.028442	20293.246094	11224.917969	52.757359
427.870178	1098.222046	19842.652344	10993.663086	52.791370
428.231049	1097.942383	19410.876953	10764.816406	52.787140
428.591858	1100.179321	18984.113281	10539.799805	52.782684
428.952698	1098.910278	18575.439453	10324.418945	52.787991
429.313446	1099.189941	18204.597656	10128.716797	52.787560
429.674164	1101.985962	17855.242188	9941.425781	52.762516
430.034851	1101.147217	17533.355469	9776.373047	52.794033
430.395477	1100.244019	17253.707031	9631.170898	52.811752
430.756104	1099.297607	17029.400391	9514.985352	52.828835
431.116699	1097.297241	16851.013672	9419.404297	52.826309
431.477203	1095.727295	16712.544922	9345.781250	52.828011
431.837646	1097.318848	16644.773438	9315.174805	52.856594
432.198090	1098.243652	16616.832031	9312.334961	52.930664
432.558502	1095.619629	16627.585938	9333.005859	53.035053
432.918884	1095.641113	16653.998047	9361.632813	53.128952
433.279205	1094.049561	16710.177734	9415.875977	53.289948
433.639465	1093.533325	16786.314453	9476.916016	53.421906
433.999756	1095.060425	16865.056641	9546.731445	53.593361
434.359924	1097.211182	16953.216797	9612.352539	53.702942
434.720093	1097.899536	17034.044922	9672.618164	53.806728
435.080200	1099.641602	17095.513672	9726.646484	53.932693
435.440277	1101.211670	17160.146484	9786.976563	54.086803
435.800354	1099.275879	17185.830078	9836.875000	54.316166
436.160370	1097.340210	17192.820313	9874.600586	54.532455
436.520325	1099.189819	17192.820313	9905.485352	54.719135
436.880249	1098.265137	17205.078125	9940.716797	54.898827
437.240112	1098.050171	17215.617188	9967.922852	55.032330
437.599976	1098.265137	17262.482422	10017.865234	55.181145
437.959808	1097.662964	17333.457031	10071.871094	55.274216
438.319519	1096.350952	17413.857422	10152.418945	55.499092
438.679260	1091.145996	17536.646484	10254.883789	55.721859
439.038940	1092.586914	17707.978516	10385.630859	55.930336
439.398590	1092.414795	17931.275391	10542.897461	56.123051
439.758179	1092.866577	18226.859375	10734.168945	56.270031
440.117767	1095.124878	18574.494141	10960.454102	56.439846
440.477295	1095.490601	18934.453125	11195.020508	56.615009
440.836792	1095.920776	19279.357422	11423.758789	56.798050
441.196198	1098.867310	19575.050781	11622.256836	56.956512
441.555603	1098.544800	19804.392578	11786.858398	57.138889
441.914978	1098.265137	19959.164063	11914.358398	57.346653
442.274323	1098.738403	20082.167969	12005.938477	57.456425
442.633575	1103.728149	20140.388672	12068.312500	57.597202
442.992859	1103.685181	20138.429688	12088.938477	57.711586
443.352051	1103.384033	20087.412109	12073.883789	57.788055
443.711182	1105.491943	19969.117188	12033.556641	57.931942
444.070313	1103.921753	19825.337891	11971.096680	58.046757
444.429382	1103.771240	19678.630859	11909.347656	58.173126
444.788452	1103.448608	19573.458984	11877.127930	58.330666
445.147430	1101.641968	19542.746094	11880.977539	58.452770
445.506409	1097.963989	19594.320313	11924.639648	58.534103
445.865295	1094.264771	19736.939453	12031.082031	58.665497
446.224182	1092.888184	19956.279297	12176.884766	58.759300
446.583038	1093.899048	20226.097656	12347.874023	58.822170
446.941833	1092.630005	20505.294922	12535.961914	58.947769
447.300598	1093.597778	20762.875000	12711.272461	59.065083
447.659302	1091.877197	20991.054688	12860.002930	59.138756
448.018005	1093.791504	21158.558594	12982.791016	59.253117
448.376648	1093.597900	21260.806641	13054.305664	59.307701
448.735229	1096.652100	21288.230469	13077.599609	59.336357
449.093781	1098.157715	21246.203125	13070.824219	59.423462
449.452301	1100.308350	21122.595703	13006.815430	59.466267
449.810791	1103.577759	20923.970703	12895.146484	59.492104
450.169220	1103.900269	20623.998047	12724.157227	59.529705
450.527618	1102.373169	20295.289063	12543.146484	59.609356
450.885956	1103.706665	20003.423828	12367.941406	59.600018
451.244263	1103.771118	19716.507813	12216.610352	59.705563
451.602539	1104.781982	19494.673828	12090.917969	59.740074
451.960785	1104.480835	19310.414063	11984.818359	59.762592
452.318970	1108.094238	19172.310547	11912.636719	59.811855
452.677124	1104.609863	19023.412109	11834.152344	59.878681
453.035248	1104.222778	18869.242188	11745.389648	59.899551
453.393311	1105.599243	18696.167969	11664.755859	60.027374
453.751312	1104.695923	18529.070313	11566.723633	60.042484
454.109314	1107.212402	18388.814453	11496.156250	60.115627
454.467285	1109.169800	18245.613281	11415.071289	60.140259
454.825195	1108.739502	18072.367188	11336.716797	60.293579
455.183044	1109.943848	17904.023438	11233.843750	60.282555
455.540894	1106.545654	17691.955078	11122.690430	60.391300
455.898651	1106.674683	17504.232422	11013.815430	60.418388
456.256378	1101.856934	17306.982422	10907.135742	60.507275
456.614105	1103.061401	17179.052734	10830.288086	60.507786
456.971771	1104.050781	17093.775391	10789.852539	60.575165
457.329407	1101.749512	17093.128906	10798.069336	60.634674
457.686981	1101.684814	17167.417969	10861.281250	60.747906
458.044525	1099.598633	17346.685547	10977.919922	60.800568
458.402008	1099.189941	17633.281250	11162.803711	60.865837
458.759460	1098.458618	18066.625000	11429.029297	60.882069
459.116913	1096.329468	18630.761719	11780.383789	60.931858
459.474274	1098.286621	19308.283203	12182.778320	60.870373
459.831635	1098.630859	19928.597656	12563.363281	60.885571
460.188904	1098.738403	20480.904297	12902.630859	60.900791
460.546173	1098.587769	20918.871094	13180.428711	60.956955
460.903381	1097.684448	21253.000000	13389.336914	60.984665
461.260559	1098.093262	21482.876953	13524.406250	60.958767
461.617706	1101.082764	21610.376953	13605.471680	60.969376
461.974762	1100.803101	21586.716797	13595.082031	60.989613
462.331848	1099.017822	21431.537109	13503.113281	61.006191
462.688843	1099.856812	21097.753906	13302.659180	61.020432
463.045837	1099.856812	20608.511719	13010.000000	61.050564
463.402740	1100.028931	20001.488281	12652.491211	61.119419
463.759613	1098.759888	19425.611328	12311.180664	61.180290
464.116486	1099.017944	18915.269531	12008.175781	61.231499
464.473267	1100.222290	18506.187500	11764.662109	61.268879
464.830048	1099.899658	18187.908203	11574.122070	61.295750
465.186737	1101.491333	17932.179688	11421.802734	61.318420
465.543457	1098.910522	17749.082031	11316.434570	61.365879
465.900085	1096.135864	17683.847656	11282.387695	61.408424
466.256683	1093.877563	17708.130859	11300.969727	61.435753
466.613251	1093.081665	17779.880859	11351.211914	61.474522
466.969757	1092.156738	17868.923828	11416.509766	61.539589
467.326233	1092.974121	17954.439453	11475.916016	61.577930
467.682678	1093.468750	18007.349609	11515.468750	61.618031
468.039093	1094.329102	18032.878906	11530.309570	61.610821
468.395416	1091.554688	18023.759766	11527.600586	61.634300
468.751740	1089.511353	18002.896484	11524.654297	61.697540
469.108032	1089.511353	17967.236328	11511.535156	61.750168
469.464233	1089.877075	17925.876953	11481.723633	61.723965
469.820435	1095.770264	17833.671875	11438.126953	61.790039
470.176575	1097.533936	17685.136719	11355.750977	61.842670
470.532715	1099.340576	17518.494141	11255.029297	61.852688
470.888763	1103.470093	17376.755859	11173.535156	61.880959
471.244751	1103.190430	17260.076172	11108.408203	61.925411
471.600769	1103.534668	17199.617188	11079.480469	61.977474
471.956696	1104.029297	17199.033203	11093.031250	62.062748
472.312592	1104.717651	17266.589844	11152.886719	62.172062
472.668457	1105.964966	17356.882813	11226.358398	62.275826
473.024292	1107.126465	17486.939453	11320.500000	62.353420
473.380035	1106.954468	17572.779297	11399.563477	62.508923
473.735779	1106.007935	17660.789063	11470.001953	62.604237
474.091492	1104.953979	17747.638672	11542.935547	62.718132
474.447113	1102.179565	17866.193359	11637.313477	62.843742
474.802765	1098.394165	17964.505859	11727.173828	63.018555
475.158295	1098.587769	18087.423828	11830.820313	63.172264
475.513824	1099.491089	18213.548828	11931.264648	63.291668
475.869324	1098.114624	18362.341797	12043.944336	63.401798
476.224762	1098.781372	18489.732422	12140.300781	63.490028
476.580170	1100.007202	18638.607422	12251.840820	63.584518
476.935516	1099.082397	18791.574219	12383.965820	63.783463
477.290863	1099.469604	19031.796875	12561.858398	63.920250
477.646118	1096.867065	19283.615234	12744.116211	64.042503
478.001373	1097.533936	19573.435547	12947.883789	64.139488
478.356537	1098.609253	19855.857422	13156.597656	64.284424
478.711700	1100.501953	20156.970703	13375.592773	64.414299
479.066833	1099.254395	20462.707031	13594.997070	64.532616
479.421875	1097.555298	20789.414063	13834.337891	64.680443
479.776917	1098.544678	21111.562500	14079.530273	64.862709
480.131897	1098.222046	21482.617188	14360.081055	65.058884
480.486847	1097.146606	21913.056641	14676.292969	65.234459
480.841766	1098.781372	22435.853516	15049.758789	65.383751
481.196594	1098.953491	23050.208984	15493.791016	65.576378
481.551453	1098.093262	23857.900391	16064.636719	65.758659
481.906219	1095.211060	24897.945313	16825.460938	66.085892
482.260986	1094.479736	26347.199219	17870.044922	66.430725
482.615662	1092.135254	28416.939453	19350.033203	66.818039
482.970306	1093.640991	31148.205078	21406.738281	67.587395
483.324951	1093.619385	34243.640625	23902.705078	68.805649
483.679504	1092.673096	37399.925781	26532.148438	70.067192
484.034027	1092.113892	40339.859375	28911.238281	70.880821
484.388519	1091.597656	42912.027344	30912.173828	71.306244
484.742981	1089.898560	45000.953125	32499.875000	71.530907
485.097351	1088.586426	46633.558594	33740.117188	71.690750
485.451721	1092.759033	47805.765625	34680.125000	71.901527
485.806030	1096.501465	48616.898438	35347.023438	72.075417
486.160309	1096.114258	49095.046875	35795.832031	72.292686
486.514557	1098.135986	49099.496094	35927.656250	72.559441
486.868744	1098.265137	48648.539063	35672.246094	72.710373
487.222931	1097.856567	47882.898438	35028.812500	72.525223
487.577026	1099.168579	46976.785156	34205.527344	72.162331
487.931122	1100.071777	46097.984375	33510.726563	72.027016
488.285126	1101.964478	45262.703125	32953.371094	72.126076
488.639099	1103.642090	44510.371094	32530.736328	72.401428
488.993042	1103.706543	43848.421875	32188.332031	72.721565
489.346954	1101.727905	43273.769531	31899.349609	73.028526
489.700836	1102.609741	42718.285156	31643.468750	73.387871
490.054626	1103.233521	42111.195313	31344.937500	73.745934
490.408417	1100.889160	41562.910156	31080.326172	74.092789
490.762146	1102.093628	41075.882813	30876.943359	74.485931
491.115814	1103.491577	40714.914063	30783.404297	74.927658
491.469513	1103.599121	40368.914063	30701.974609	75.380455
491.823090	1102.007324	39915.222656	30521.132813	75.796669
492.176666	1101.813965	39426.257813	30308.398438	76.208755
492.530182	1100.609375	38929.359375	30084.310547	76.618187
492.883698	1099.813721	38390.558594	29826.105469	77.033295
493.237091	1099.017944	37800.746094	29516.605469	77.428474
493.590515	1099.232910	37121.738281	29109.886719	77.758766
493.943878	1098.243652	36263.609375	28567.392578	78.114212
494.297150	1101.233276	35105.378906	27804.154297	78.528435
494.650452	1100.630981	33647.519531	26771.939453	78.874847
495.003662	1100.093262	31910.638672	25520.925781	79.261276
495.356873	1099.792114	30217.744141	24289.224609	79.639641
495.710022	1100.028687	28792.429688	23280.949219	80.097496
496.063110	1098.329590	27677.992188	22532.921875	80.642830
496.416168	1098.867188	26896.216797	22038.794922	81.170853
496.769165	1100.544922	26366.167969	21739.812500	81.689133
497.122162	1100.286865	26053.806641	21606.138672	82.176193
497.475098	1100.566528	25846.599609	21569.080078	82.714325
497.828003	1100.803223	25765.664063	21617.775391	83.183006
498.180847	1099.190063	25726.951172	21682.728516	83.578606
498.533661	1096.479980	25654.445313	21733.617188	84.034393
498.886444	1097.598267	25577.039063	21764.931641	84.427307
499.239136	1096.221802	25444.720703	21756.201172	84.851143
499.591827	1097.727417	25234.654297	21662.080078	85.198723
499.944427	1098.222168	24928.873047	21485.457031	85.550476
500.297089	1096.243286	24563.923828	21251.708984	85.886055
500.649628	1095.899292	24183.425781	20996.000000	86.194168
501.002136	1097.017700	23780.343750	20733.558594	86.568176
501.354584	1097.232788	23425.330078	20488.517578	86.847008
501.707001	1100.394409	23066.189453	20243.326172	87.148819
502.059387	1102.523804	22777.572266	20050.591797	87.418800
502.411682	1104.524048	22528.509766	19883.861328	87.655663
502.764038	1104.265747	22331.023438	19764.794922	87.910408
503.116302	1104.480957	22180.294922	19683.644531	88.153954
503.468475	1104.803589	22081.445313	19656.523438	88.439896
503.820709	1104.954102	22042.277344	19671.943359	88.678894
504.172852	1105.943481	22012.984375	19681.041016	88.846130
504.524902	1106.136963	22011.242188	19716.720703	89.024109
504.876953	1104.588379	22025.222656	19759.802734	89.171364
505.228912	1102.631226	22043.330078	19807.808594	89.324516
505.580872	1100.222290	22069.484375	19860.222656	89.464287
505.932770	1096.953125	22046.945313	19868.501953	89.601700
506.284698	1098.996460	22020.857422	19885.429688	89.793320
506.636505	1100.695557	22023.373047	19909.798828	89.898163
506.988342	1100.179443	22017.480469	19916.466797	89.955620
507.340088	1100.136353	22023.845703	19931.908203	90.002068
507.691772	1100.674072	22037.267578	19953.958984	90.049438
508.043396	1099.684692	22092.435547	20024.376953	90.148705
508.395050	1100.308472	22172.833984	20103.845703	90.181587
508.746582	1101.555786	22285.621094	20214.054688	90.221107
509.098114	1101.039551	22428.003906	20350.371094	90.258186
509.449646	1099.405151	22588.648438	20496.539063	90.264389
509.801086	1100.200806	22787.533203	20683.291016	90.297371
510.152557	1097.447754	22997.281250	20858.949219	90.235855
510.503906	1094.909790	23199.820313	21031.767578	90.191986
510.855194	1096.114136	23391.392578	21202.068359	90.180321
511.206482	1096.028076	23587.716797	21368.498047	90.133163
511.557709	1094.587158	23787.632813	21527.248047	90.039307
511.908844	1096.458496	23983.898438	21670.384766	89.891777
512.260010	1095.275513	24123.050781	21783.107422	89.838608
512.611206	1094.415161	24226.591797	21851.117188	89.730865
512.962219	1096.178711	24295.806641	21886.433594	89.614594
513.313232	1099.512573	24345.337891	21903.060547	89.493698
513.664246	1099.899780	24347.125000	21880.691406	89.390419
514.015137	1101.663330	24320.863281	21834.169922	89.290359
514.366028	1103.362549	24279.220703	21765.169922	89.152283
514.716919	1103.319458	24214.181641	21679.224609	89.031319
515.067688	1103.706665	24113.310547	21559.812500	88.902466
515.418396	1106.158569	24022.310547	21443.324219	88.745987
515.769104	1105.857422	23951.248047	21356.539063	88.642311
516.119812	1105.857544	23936.923828	21307.392578	88.482658
516.470459	1104.136719	24019.449219	21332.857422	88.276001
516.821106	1103.943237	24165.898438	21423.320313	88.107780
517.171631	1102.631348	24438.595703	21629.992188	87.964485
517.522095	1104.072266	24824.949219	21934.394531	87.814301
517.872559	1101.104126	25355.875000	22351.007813	87.611229
518.222961	1099.491089	25922.587891	22805.578125	87.443108
518.573364	1099.878296	26497.068359	23246.451172	87.200882
518.923645	1097.447876	27009.025391	23636.671875	86.985146
519.273987	1095.813232	27444.949219	23962.087891	86.781876
519.624207	1095.017334	27744.255859	24167.187500	86.577225
519.974487	1094.845215	27967.314453	24307.076172	86.379227
520.324646	1097.146606	28054.812500	24338.261719	86.213379
520.674744	1099.426392	28052.123047	24285.417969	86.024757
521.024780	1100.351196	27905.179688	24096.814453	85.792244
521.374878	1100.415771	27644.673828	23803.251953	85.528236
521.724792	1102.588013	27274.068359	23415.162109	85.255302
522.074707	1100.544800	26863.738281	23013.435547	85.055023
522.424744	1100.136230	26471.169922	22634.119141	84.876251
522.774536	1100.265381	26182.986328	22329.822266	84.638176
523.124329	1099.082520	25963.087891	22085.251953	84.403816
523.474182	1100.846191	25892.238281	21964.226563	84.155746
523.823914	1101.426880	25940.138672	21947.236328	83.924683
524.173523	1102.029175	26151.929688	22055.896484	83.648506
524.523132	1100.588013	26546.710938	22314.789063	83.369087
524.872803	1100.007324	27100.238281	22695.091797	83.057281
525.222290	1098.544678	27838.675781	23231.287109	82.769760
525.571777	1098.695190	28641.482422	23839.642578	82.565887
525.921326	1100.544800	29516.044922	24476.023438	82.263123
526.270752	1100.996582	30439.126953	25159.787109	82.005196
526.620178	1103.706543	31463.101563	25928.460938	81.769592
526.969482	1103.663574	32721.966797	26906.175781	81.606255
527.318787	1102.416138	34311.453125	28134.669922	81.400299
527.668030	1102.416138	36333.511719	29763.494141	81.351654
528.017212	1100.588013	38582.175781	31687.386719	81.604866
528.366394	1098.243652	40807.421875	33615.691406	81.888992
528.715515	1099.964233	42803.152344	35297.468750	82.002136
529.064636	1102.201050	44375.453125	36553.988281	81.925407
529.413635	1101.125732	45543.597656	37429.625000	81.742752
529.762695	1100.652466	46308.406250	37947.214844	81.504959
530.111633	1098.028442	46743.621094	38189.359375	81.259392
530.460510	1096.415405	46786.746094	38121.566406	81.034981
530.809387	1096.996216	46388.996094	37686.457031	80.785706
531.158142	1095.017456	45484.238281	36855.019531	80.560104
531.506958	1094.006470	44063.546875	35540.941406	80.165939
531.855652	1096.759521	42402.140625	33920.933594	79.467064
532.204407	1096.049683	40807.140625	32325.273438	78.641068
532.552979	1095.081909	39555.570313	31070.539063	77.938316
532.901611	1093.963379	38680.625000	30202.775391	77.444534
533.250183	1090.522217	38107.992188	29601.886719	77.021378
533.598755	1091.511597	37671.503906	29159.830078	76.731339
533.947205	1093.834473	37317.117188	28788.750000	76.456123
534.295593	1093.770020	37026.246094	28466.794922	76.179070
534.643982	1093.146362	36790.921875	28186.332031	75.896004
534.992249	1098.329590	36565.519531	27929.718750	75.651291
535.340576	1099.211426	36345.882813	27689.257813	75.439880
535.688843	1096.867065	36093.421875	27408.837891	75.184464
536.037048	1098.351074	35689.480469	26998.960938	74.876450
536.385315	1097.727417	35053.160156	26414.669922	74.559326
536.733398	1093.404297	34230.691406	25686.710938	74.216408
537.081421	1097.963989	33336.515625	24906.957031	73.852554
537.429443	1098.781372	32512.695313	24198.031250	73.531906
537.777466	1099.964233	31796.349609	23573.070313	73.210922
538.125427	1099.491089	31195.392578	23047.113281	72.925621
538.473267	1100.652466	30718.154297	22621.685547	72.663231
538.821167	1096.157349	30342.189453	22260.716797	72.367287
539.169006	1093.490356	30042.281250	21953.947266	72.059853
539.516846	1095.404541	29785.906250	21695.033203	71.799469
539.864502	1094.393677	29725.533203	21574.242188	71.529976
540.212219	1093.597778	29960.894531	21653.888672	71.223473
540.559875	1096.415527	30618.244141	22028.794922	70.904755
540.907410	1095.189453	31609.419922	22662.398438	70.679184
541.254944	1091.812866	32749.218750	23394.144531	70.449020
541.602478	1088.629517	33840.988281	24081.693359	70.202774
541.949951	1091.081543	34812.960938	24692.412109	69.988182
542.297363	1090.995483	35665.558594	25208.863281	69.756104
542.644714	1090.952393	36393.113281	25654.679688	69.581367
542.992126	1094.909912	36898.488281	25920.480469	69.338242
543.339355	1094.909912	37133.890625	26000.533203	69.107460
543.686646	1095.641113	36962.300781	25785.623047	68.838257
544.033813	1096.028320	36350.503906	25274.095703	68.581551
544.380920	1098.544800	35273.101563	24437.306641	68.292793
544.728027	1098.157593	33893.148438	23396.726563	67.993820
545.075134	1099.577026	32485.080078	22321.476563	67.616882
545.422180	1102.609741	31191.500000	21345.419922	67.276695
545.769165	1100.136230	30101.513672	20513.273438	66.938675
546.116150	1101.512695	29163.873047	19794.173828	66.611153
546.463013	1103.620605	28333.876953	19140.373047	66.237907
546.809875	1101.147095	27652.351563	18611.060547	65.947716
547.156677	1100.222290	27041.158203	18129.773438	65.647408
547.503418	1099.340576	26523.564453	17734.714844	65.431198
547.850098	1099.555664	26053.443359	17354.408203	65.139565
548.196777	1099.060913	25603.150391	17006.193359	64.916237
548.543396	1099.684448	25154.019531	16654.064453	64.663521
548.890015	1099.921143	24654.173828	16282.296875	64.457047
549.236633	1099.577026	24106.105469	15882.677734	64.256111
549.583069	1099.383545	23500.394531	15445.634766	64.042870
549.929504	1100.953613	22837.970703	14969.359375	63.800869
550.275879	1100.846191	22184.296875	14494.547852	63.527081
550.622253	1102.136597	21534.345703	14022.491211	63.235229
550.968567	1102.953979	20971.779297	13612.633789	62.961342
551.314819	1105.255249	20489.205078	13256.827148	62.688835
551.661072	1104.029297	20128.861328	12996.772461	62.511684
552.007263	1102.029175	19904.488281	12804.725586	62.240242
552.353394	1103.190430	19757.716797	12659.374023	61.948414
552.699524	1104.480957	19663.253906	12558.202148	61.715935
553.045593	1102.373169	19617.462891	12489.912109	61.504097
553.391602	1104.631470	19596.880859	12432.228516	61.255913
553.737549	1101.168579	19576.876953	12378.694336	61.039745
554.083435	1101.770996	19533.453125	12308.728516	60.802685
554.429321	1103.706543	19478.607422	12234.139648	60.574116
554.775146	1101.942993	19381.414063	12133.546875	60.349689
555.120972	1101.018188	19274.023438	12028.694336	60.131363
555.466675	1102.115112	19112.755859	11878.332031	59.832500
555.812439	1104.222900	18910.880859	11706.116211	59.538929
556.158081	1103.556274	18680.765625	11533.083984	59.335514
556.503662	1102.824829	18449.339844	11341.167969	59.022476
556.849182	1104.739136	18225.054688	11159.769531	58.731567
557.194702	1103.061401	18018.554688	10992.522461	58.463921
557.540161	1104.588501	17818.185547	10840.483398	58.251339
557.885620	1104.330322	17654.017578	10709.714844	58.039673
558.231018	1102.050537	17501.242188	10584.903320	57.825123
558.576355	1100.265381	17381.789063	10478.955078	57.603268
558.921692	1102.115112	17289.044922	10373.802734	57.278851
559.266968	1101.985962	17192.560547	10289.146484	57.096535
559.612183	1100.007324	17111.517578	10209.415039	56.892876
559.957336	1100.157837	17059.187500	10141.751953	56.655037
560.302429	1099.211426	17023.355469	10102.994141	56.541706
560.647522	1098.673706	17005.095703	10066.624023	56.379433
560.992554	1097.211182	16996.341797	10025.306641	56.154613
561.337524	1097.168213	17005.804688	10001.497070	55.971668
561.682434	1095.275513	17022.130859	9981.538086	55.794209
562.027344	1095.662720	17028.236328	9952.115234	55.587078
562.372253	1099.039307	17038.152344	9933.596680	55.426907
562.717102	1099.189941	17022.064453	9920.798828	55.402115
563.061829	1097.813354	17045.335938	9899.333984	55.190521
563.406494	1096.974609	17039.208984	9877.740234	55.078640
563.751160	1093.253784	17025.033203	9844.595703	54.930096
564.095825	1093.963501	17028.648438	9812.075195	54.711540
564.440369	1093.060059	17044.304688	9790.761719	54.526787
564.784973	1095.146362	17087.515625	9795.105469	54.400688
565.129456	1094.329224	17191.763672	9816.915039	54.186188
565.473877	1093.705444	17318.017578	9858.166992	54.020546
565.818298	1091.167480	17494.449219	9936.413086	53.923637
566.162659	1090.801880	17690.904297	10017.605469	53.775597
566.507019	1087.661621	17885.035156	10092.066406	53.606026
566.851196	1090.844849	18033.029297	10151.860352	53.481983
567.195435	1090.930786	18181.650391	10204.662109	53.325619
567.539612	1094.350586	18281.232422	10241.397461	53.221092
567.883789	1093.038574	18350.337891	10255.894531	53.095535
568.227844	1094.350708	18373.931641	10257.915039	53.031174
568.571960	1094.243042	18368.382813	10235.203125	52.917019
568.915955	1094.888306	18297.125000	10176.788086	52.794876
569.259888	1096.587402	18214.556641	10119.339844	52.709244
569.603821	1099.405151	18094.542969	10032.705078	52.563854
569.947632	1099.426514	17961.880859	9942.135742	52.440224
570.291504	1100.544922	17867.480469	9864.339844	52.268318
570.635193	1097.146606	17825.111328	9827.174805	52.188229
570.979004	1099.275879	17849.824219	9820.249023	52.063801
571.322632	1100.695435	17954.826172	9848.704102	51.904240
571.666321	1101.190186	18077.617188	9911.249023	51.895832
572.009949	1102.072021	18221.482422	9969.212891	51.795830
572.353455	1102.566772	18347.908203	10023.434570	51.729145
572.696960	1101.254761	18457.728516	10068.343750	51.664230
573.040405	1099.146973	18533.201172	10087.959961	51.558933
573.383850	1098.587769	18599.574219	10100.691406	51.437691
573.727173	1099.297607	18644.417969	10112.500977	51.371563
574.070557	1099.577148	18657.710938	10110.047852	51.317932
574.413879	1100.953735	18657.667969	10096.154297	51.235100
574.757019	1099.813721	18610.478516	10068.538086	51.218643
575.100281	1097.447876	18509.691406	10011.584961	51.194645
575.443420	1097.125122	18375.201172	9920.003906	51.064011
575.786499	1094.458130	18211.888672	9820.636719	50.978325
576.129517	1091.361084	18045.138672	9717.140625	50.878216
576.472534	1090.909302	17876.083984	9619.212891	50.808552
576.815491	1091.296509	17689.091797	9512.576172	50.737339
577.158447	1090.221191	17486.445313	9409.681641	50.740101
577.501343	1090.049072	17278.958984	9290.441406	50.654385
577.844116	1089.167236	17046.132813	9160.274414	50.580463
578.187012	1089.769531	16777.798828	9013.116211	50.505684
578.529724	1090.479370	16485.935547	8852.386719	50.416870
578.872375	1090.285645	16187.790039	8691.980469	50.350674
579.215027	1092.199951	15902.677734	8538.584961	50.277817
579.557617	1093.834473	15631.097656	8392.007813	50.203213
579.900146	1097.426270	15371.777344	8251.646484	50.119408
580.242676	1098.200684	15135.146484	8123.996582	50.052170
580.585144	1098.372681	14925.915039	8010.862793	49.990738
580.927612	1099.964355	14731.781250	7901.773926	49.896576
581.269958	1099.598633	14558.878906	7803.934570	49.811993
581.612305	1099.770752	14418.152344	7729.323730	49.777466
581.954590	1099.125488	14297.750000	7662.669922	49.729000
582.296814	1099.512573	14190.812500	7601.351074	49.665340
582.639038	1100.200806	14103.037109	7550.999512	49.610706
582.981140	1099.340576	14021.628906	7505.015625	49.570747
583.323242	1099.512573	13931.920898	7453.848145	49.517872
583.665283	1098.265015	13851.415039	7413.284668	49.517330
584.007324	1100.028687	13781.985352	7373.236328	49.465611
584.349304	1102.007446	13709.204102	7334.542480	49.436329
584.691284	1102.308472	13636.271484	7302.625000	49.468124
585.033142	1102.351685	13574.391602	7268.664551	49.441093
585.374939	1104.566895	13519.954102	7236.703125	49.391422
585.716736	1107.836060	13466.011719	7208.613770	49.366329
586.058411	1106.567139	13411.962891	7183.707520	49.385983
586.400085	1110.137451	13364.902344	7157.618652	49.348003
586.741760	1109.212769	13321.413086	7128.561035	49.289627
587.083374	1109.234253	13313.434570	7123.679199	49.281761
587.424988	1108.954590	13301.734375	7116.021973	49.267418
587.766541	1107.018799	13296.334961	7112.300293	49.266762
588.107971	1106.717773	13323.178711	7121.872070	49.238110
588.449341	1105.964966	13351.696289	7133.185547	49.218952
588.790710	1102.932373	13396.068359	7159.081055	49.264473
589.132080	1100.415894	13431.727539	7182.051270	49.318642
589.473267	1097.619873	13485.625977	7206.851074	49.315697
589.814514	1098.308105	13539.355469	7228.143555	49.271057
590.155762	1094.866943	13599.190430	7254.404785	49.259270
590.496948	1095.662720	13625.881836	7270.535645	49.279850
590.838013	1093.791504	13636.012695	7275.460938	49.286880
591.179077	1093.425903	13644.377930	7281.289551	49.301949
591.520081	1093.124756	13635.905273	7275.437988	49.289818
591.861023	1092.909668	13604.050781	7252.597168	49.233620
592.201965	1094.049683	13567.380859	7231.626953	49.205597
592.542847	1094.350708	13520.362305	7203.580078	49.164845
592.883606	1094.350586	13474.616211	7173.232910	49.101387
593.224365	1093.812988	13432.461914	7151.682617	49.096703
593.565125	1095.038940	13414.565430	7139.422363	49.063438
593.905823	1093.662354	13405.166016	7130.388672	49.033218
594.246521	1093.640991	13429.277344	7135.787109	48.981224
594.587097	1095.813232	13479.755859	7150.843262	48.894207
594.927612	1095.060425	13530.147461	7165.210449	48.814697
595.268127	1098.501831	13617.537109	7205.925293	48.785095
595.608582	1096.738159	13737.702148	7274.664063	48.872269
595.948975	1097.361816	13919.186523	7357.534668	48.824352
596.289307	1097.921021	14138.355469	7469.871582	48.863026
596.629700	1097.920898	14373.543945	7584.058105	48.857498
596.969971	1098.695190	14583.634766	7682.242188	48.821480
597.310242	1095.791748	14748.256836	7763.220215	48.836811
597.650391	1097.017700	14833.452148	7805.763672	48.839066
597.990540	1098.157715	14878.662109	7826.819824	48.827404
598.330627	1096.910278	14868.209961	7814.215820	48.777573
598.670654	1098.071655	14827.321289	7792.493652	48.760288
599.010620	1096.802612	14715.005859	7738.098633	48.767784
599.350525	1097.211182	14560.815430	7650.732910	48.675831
599.690491	1095.447510	14334.487305	7537.342285	48.658321
600.030334	1095.963745	14053.934570	7391.991699	48.588070
600.370178	1098.437134	13753.231445	7241.865723	48.546257
600.710022	1097.920898	13462.032227	7096.535645	48.516342
601.049683	1100.523438	13202.603516	6963.529785	48.446270
601.389343	1100.222290	13015.827148	6869.023438	48.413837
601.728943	1098.458618	12878.240234	6802.090332	48.418827
602.068542	1099.340454	12808.490234	6776.753418	48.486980
602.408081	1099.555542	12813.306641	6778.345215	48.479683
602.747498	1096.587402	12897.833984	6816.220703	48.466351
603.087036	1097.426270	13028.324219	6885.669922	48.514732
603.426453	1096.200317	13228.691406	6979.983887	48.496090
603.765869	1096.049683	13460.613281	7091.093750	48.485691
604.105103	1095.404419	13732.733398	7228.573242	48.532162
604.444336	1095.038940	14025.156250	7370.138672	48.530880
604.783569	1092.694580	14310.224609	7508.994141	48.543861
605.122681	1093.339722	14537.800781	7614.491699	48.504375
605.461792	1093.898926	14714.596680	7694.738770	48.461834
605.800842	1091.619141	14821.641602	7739.539063	48.418858
606.139954	1091.188965	14841.731445	7750.573242	48.429974
606.478943	1092.458008	14791.166016	7726.892578	48.431099
606.817932	1092.909668	14669.818359	7666.520020	48.417580
607.156799	1096.307861	14492.224609	7577.885742	48.384727
607.495605	1098.050049	14283.812500	7469.785645	48.322842
607.834412	1097.770386	14040.190430	7344.587402	48.266220
608.173157	1099.641602	13796.268555	7225.218262	48.245701
608.511841	1100.394409	13598.674805	7131.485840	48.255371
608.850464	1098.394165	13492.187500	7074.016113	48.214634
609.189148	1099.856567	13428.931641	7046.550293	48.233089
609.527710	1100.674072	13402.199219	7035.409668	48.243896
609.866211	1099.684692	13397.660156	7031.860840	48.237015
610.204712	1098.544800	13401.832031	7027.838867	48.192764
610.543091	1097.619873	13421.490234	7026.892090	48.112099
610.881409	1095.705566	13409.467773	7021.515137	48.123470
611.219788	1093.963623	13372.667969	7004.846680	48.139305
611.558044	1093.812988	13309.347656	6972.906738	48.128010
611.896301	1091.705078	13199.097656	6913.114258	48.081444
612.234436	1092.737671	13027.894531	6823.039063	48.011948
612.572693	1094.694824	12793.499023	6711.520508	48.011963
612.910767	1094.221558	12539.918945	6581.138672	47.938686
613.248840	1094.178589	12277.156250	6452.692383	47.916698
613.586792	1096.888550	12025.425781	6326.482910	47.852646
613.924805	1098.695190	11788.512695	6216.770508	47.878040
614.262695	1099.727661	11571.411133	6112.090820	47.865879
614.600525	1101.254761	11383.238281	6024.832520	47.885487
614.938293	1102.953979	11231.972656	5949.812988	47.851219
615.276123	1103.040039	11102.236328	5882.987305	47.803314
615.613892	1100.824707	10995.621094	5829.905273	47.793610
615.951538	1099.362183	10904.834961	5784.974609	47.785686
616.289185	1099.835205	10831.686523	5756.283203	47.847507
616.626770	1097.641479	10767.162109	5729.290527	47.899467
616.964294	1097.727417	10728.683594	5706.814453	47.857002
617.301819	1096.781128	10697.540039	5692.016602	47.863251
617.639221	1097.619873	10677.108398	5676.509766	47.798897
617.976624	1097.211060	10657.708008	5672.315918	47.854259
618.313965	1096.243286	10649.468750	5662.937988	47.802647
618.651306	1096.028198	10634.735352	5655.668457	47.801449
618.988525	1094.178589	10620.928711	5644.526855	47.763908
619.325684	1097.297363	10602.753906	5640.870605	47.799629
619.662964	1099.921387	10589.075195	5628.826660	47.727177
620.000000	1099.813721	10570.235352	5616.352051	47.690990
620.337097	1098.974854	10547.738281	5603.791016	47.676250
620.674133	1097.942505	10512.743164	5588.111816	47.692665
621.011047	1097.017578	10483.148438	5574.304199	47.701088
621.347961	1096.092773	10448.735352	5559.548828	47.724010
621.684875	1094.737793	10412.816406	5537.783203	47.681995
622.021729	1095.813232	10378.791016	5520.920898	47.669052
622.358521	1095.684204	10344.764648	5503.305176	47.654697
622.695313	1097.103638	10306.308594	5493.884766	47.743332
623.031982	1096.824097	10284.176758	5478.678223	47.694416
623.368652	1095.296997	10261.485352	5477.796387	47.811581
623.705261	1095.963745	10251.548828	5467.816895	47.750668
624.041748	1097.469238	10251.785156	5470.548828	47.770683
624.378296	1099.340454	10255.355469	5474.484863	47.784378
624.714722	1099.426636	10275.638672	5482.593262	47.766621
625.051147	1101.190186	10313.256836	5498.745605	47.736908
625.387512	1100.501953	10365.477539	5525.394043	47.759350
625.723877	1098.609253	10452.929688	5562.366699	47.718670
626.060120	1099.770630	10549.522461	5611.211426	47.741367
626.396301	1098.716797	10676.248047	5665.411621	47.681335
626.732483	1099.362183	10795.445313	5723.396973	47.689720
627.068604	1102.287109	10906.147461	5769.467285	47.605534
627.404724	1102.631348	11006.245117	5814.440918	47.576672
627.740662	1102.609863	11092.771484	5847.605957	47.496689
628.076721	1104.029175	11155.273438	5869.824219	47.414974
628.412720	1104.889526	11191.256836	5882.019043	47.362240
628.748596	1103.620605	11195.687500	5885.331543	47.380890
629.084473	1105.943481	11178.266602	5872.405273	47.322369
629.420227	1107.277100	11111.333984	5844.659668	47.354618
629.755981	1106.911377	11027.991211	5800.826172	47.312542
630.091675	1108.180298	10910.987305	5744.604004	47.296902
630.427307	1110.503174	10777.874023	5683.306641	47.301418
630.762939	1106.266113	10644.050781	5622.373535	47.349644
631.098450	1105.362671	10515.711914	5567.593262	47.418327
631.434021	1104.781982	10400.235352	5514.532715	47.439873
631.769470	1103.685059	10291.620117	5468.591797	47.506935
632.104980	1102.846313	10191.930664	5425.748047	47.561470
632.440308	1102.029053	10108.780273	5383.720703	47.538689
632.775635	1101.813965	10030.147461	5350.984863	47.591980
633.110901	1099.211426	9979.409180	5325.111328	47.587906
633.446106	1098.480103	9941.985352	5312.421387	47.650127
633.781250	1099.641602	9918.605469	5299.839355	47.626884
634.116394	1099.232910	9898.128906	5290.547852	47.634552
634.451538	1102.158081	9885.289063	5281.923340	47.588554
634.786560	1102.867798	9865.500977	5269.921875	47.554821
635.121582	1102.502075	9830.788086	5254.457520	47.568966
635.456543	1102.308594	9802.785156	5233.982422	47.487904
635.791443	1103.534424	9758.627930	5210.387695	47.450134
636.126221	1104.502441	9707.848633	5185.502930	47.435040
636.461060	1105.190674	9659.993164	5159.671387	47.394203
636.795776	1107.190918	9596.716797	5129.560547	47.380383
637.130493	1105.943481	9518.750000	5086.845215	47.319546
637.465210	1103.878784	9428.092773	5048.066406	47.382103
637.799805	1102.028931	9344.297852	5005.179199	47.355293
638.134399	1101.233276	9254.458984	4965.690918	47.397896
638.468933	1101.254761	9165.372070	4926.352051	47.433552
638.803345	1101.125610	9083.641602	4884.088867	47.390614
639.137756	1100.050293	9002.297852	4848.127441	47.430519
639.472168	1100.394409	8935.709961	4816.854980	47.432175
639.806519	1100.007324	8868.152344	4787.604004	47.470749
640.140747	1096.695190	8796.789063	4756.481934	47.529118
640.474976	1094.071167	8722.736328	4720.950195	47.542774
640.809204	1094.759277	8651.587891	4689.119141	47.564396
641.143372	1095.899292	8599.172852	4661.824707	47.524929
641.477478	1095.770264	8539.037109	4633.413574	47.528103
641.811462	1095.469116	8489.138672	4603.280273	47.443439
642.145447	1096.630615	8438.615234	4577.169434	47.405968
642.479370	1098.974976	8393.835938	4555.640137	47.384933
642.813293	1100.846069	8347.163086	4537.164551	47.421585
643.147095	1100.846191	8300.597656	4517.033203	47.448681
643.480957	1101.039673	8259.368164	4495.008789	47.412872
643.814758	1104.373413	8223.168945	4478.167969	47.392773
644.148438	1105.362793	8195.423828	4465.865234	47.397369
644.482117	1105.986450	8168.646973	4454.186523	47.407066
644.815735	1103.061401	8131.695801	4437.775879	47.444698
645.149292	1102.717163	8109.973145	4429.624512	47.478031
645.482788	1101.899902	8092.078125	4426.505859	47.561104
645.816223	1099.942749	8076.871582	4420.246582	47.589760
646.149658	1099.706177	8067.816895	4419.816895	47.647217
646.483032	1100.502075	8075.860840	4421.386230	47.608795
646.816345	1100.093384	8077.473633	4421.601074	47.603939
647.149658	1098.200684	8077.538574	4422.634277	47.632507
647.482849	1096.200317	8084.291992	4422.074707	47.593456
647.816101	1096.824097	8078.957520	4425.773926	47.678116
648.149231	1098.308105	8086.378418	4432.828613	47.717331
648.482239	1100.523560	8096.530762	4437.001465	47.691174
648.815247	1100.953613	8095.196777	4437.151855	47.699203
649.148254	1099.426636	8089.260742	4437.237793	47.752365
649.481201	1100.222412	8077.538574	4437.840332	47.835266
649.814087	1101.082764	8073.194824	4439.861816	47.887627
650.146973	1098.630859	8060.848633	4438.184082	47.966801
650.479736	1098.931885	8054.697266	4434.334473	47.951626
650.812500	1101.921509	8054.976563	4435.796875	47.948353
651.145203	1101.104248	8043.039551	4432.635254	47.991386
651.477844	1100.803101	8051.212402	4429.107910	47.886456
651.810486	1097.705933	8047.298340	4423.429688	47.854946
652.143005	1096.716675	8036.156250	4418.009766	47.861115
652.475525	1096.716675	8036.543457	4416.590332	47.837990
652.807922	1097.426392	8025.961426	4411.922852	47.838345
653.140381	1097.168213	8024.478027	4405.169434	47.753044
653.472717	1095.383057	7998.733887	4394.845703	47.795090
653.805115	1095.727173	7972.062988	4378.563965	47.741077
654.137390	1093.770020	7941.564453	4366.691406	47.795265
654.469543	1093.296753	7907.625000	4350.582031	47.800533
654.801758	1095.619629	7876.094238	4336.214355	47.793037
655.133850	1096.867065	7834.734375	4319.890137	47.834469
655.465881	1097.490723	7790.793457	4299.801270	47.843502
655.797974	1099.082397	7760.961426	4288.079590	47.869335
656.129944	1099.921143	7724.742188	4274.271484	47.916016
656.461853	1098.114502	7702.911133	4262.657227	47.912792
656.793762	1096.974487	7684.500000	4257.968262	47.984539
657.125610	1097.189575	7687.489258	4261.689453	48.017544
657.457397	1096.845581	7706.740234	4277.970703	48.126713
657.789124	1098.265137	7744.443359	4301.672852	48.199245
658.120789	1096.652100	7805.526367	4334.020996	48.255028
658.452393	1095.963867	7895.795410	4384.823242	48.366776
658.783997	1096.393921	8007.443848	4442.958984	48.423393
659.115540	1099.706177	8137.502930	4509.784668	48.453781
659.447083	1099.082520	8251.990234	4570.458984	48.530983
659.778503	1097.383301	8362.735352	4628.057617	48.596054
660.109924	1099.276001	8457.262695	4677.740723	48.633751
660.441284	1099.770630	8524.668945	4712.820801	48.661274
660.772522	1100.394287	8568.072266	4728.822266	48.588440
661.103760	1101.082520	8577.277344	4737.984863	48.646435
661.434998	1102.028809	8569.641602	4734.521973	48.643299
661.766113	1104.007690	8515.679688	4712.841797	48.691227
662.097229	1104.029419	8421.323242	4664.254883	48.654949
662.428345	1104.717651	8297.867188	4606.205078	48.678085
662.759277	1102.179565	8148.234863	4536.110352	48.735508
663.090332	1102.609741	8003.937988	4466.467285	48.742176
663.421204	1101.942993	7856.973145	4394.071289	48.735954
663.752075	1102.846313	7713.859375	4322.793457	48.705807
664.082886	1102.867798	7589.284668	4262.592773	48.712952
664.413635	1100.889160	7478.367676	4214.543945	48.822662
664.744324	1099.233032	7379.688965	4165.290527	48.819027
665.075012	1097.899536	7287.720215	4121.521484	48.848297
665.405640	1097.963989	7214.679199	4089.968994	48.915222
665.736206	1098.394165	7161.597168	4065.321045	48.933323
666.066772	1095.727051	7110.623047	4042.565430	48.992340
666.397278	1096.867065	7076.941895	4028.047607	49.015785
666.727661	1095.555054	7038.851074	4011.529053	49.063251
667.058044	1097.469238	7009.146973	4000.065674	49.099369
667.388306	1097.512329	6988.822266	3995.226318	49.186241
667.718567	1098.673828	6970.820313	3991.462402	49.262882
668.048828	1099.899780	6964.669922	3987.203857	49.231327
668.378967	1102.889404	6962.884277	3986.343018	49.205734
668.709167	1103.921875	6958.732910	3986.192383	49.229095
669.039246	1101.878540	6962.690918	3983.353760	49.165112
669.369263	1102.416260	6956.776367	3982.579590	49.196892
669.699341	1104.846558	6948.473633	3978.514160	49.176094
670.029236	1105.083130	6938.924805	3973.308838	49.165295
670.359131	1107.147827	6934.085449	3966.727539	49.075172
670.688965	1106.502686	6921.546875	3961.867188	49.103058
671.018738	1105.384277	6902.124512	3955.285889	49.163868
671.348511	1103.878662	6880.379883	3944.252197	49.171177
671.678223	1104.308716	6849.687500	3933.562744	49.243992
672.007813	1102.867676	6814.112793	3916.872070	49.271294
672.337341	1100.157715	6783.227051	3899.558594	49.258610
672.666992	1102.201050	6750.986328	3879.964844	49.174534
672.996460	1102.115112	6716.401855	3864.586670	49.204323
673.325867	1100.673950	6688.054199	3849.079590	49.189522
673.655273	1097.275635	6651.426270	3830.840088	49.216610
673.984619	1095.382935	6617.271484	3818.537598	49.315639
674.314026	1096.415283	6586.729492	3799.890381	49.240807
674.643250	1098.243652	6561.845215	3782.597412	49.131580
674.972412	1098.802856	6540.853516	3767.735840	49.042782
675.301514	1098.243652	6515.022949	3749.777100	48.950367
675.630676	1097.404663	6495.687012	3739.130371	48.936413
675.959778	1100.243774	6470.328125	3727.085693	48.916210
676.288757	1099.189941	6442.131348	3717.987549	49.014156
676.617737	1098.265137	6422.817383	3703.017822	48.919659
676.946594	1098.566284	6406.148438	3697.856201	48.973148
677.275513	1100.673950	6395.158203	3695.769775	49.015079
677.604309	1101.899902	6392.383301	3693.103027	48.978569
677.933044	1100.781494	6398.320313	3691.704834	48.908054
678.261780	1100.803101	6410.879883	3695.576416	48.865086
678.590393	1099.340576	6432.216797	3702.974854	48.822330
678.919067	1101.254761	6468.823242	3719.837402	48.785267
679.247620	1100.523315	6513.860840	3736.463135	48.693436
679.576111	1099.125366	6559.737305	3758.723633	48.705132
679.904541	1098.179077	6620.088867	3786.232666	48.679783
680.232971	1098.006958	6676.332520	3816.322510	48.729954
680.561401	1097.490845	6732.962891	3838.647705	48.641121
680.889709	1097.082153	6787.829590	3861.553955	48.578358
681.217957	1096.350830	6834.244141	3876.244385	48.447979
681.546143	1094.006470	6873.323730	3900.203857	48.555859
681.874390	1095.318481	6900.359375	3915.904541	48.588562
682.202454	1096.393799	6914.985840	3927.303711	48.652836
682.530579	1096.157227	6905.263672	3921.668945	48.639351
682.858521	1099.017700	6874.012695	3911.839600	48.706913
683.186523	1099.426514	6833.169922	3891.385742	48.693481
683.514465	1099.641602	6772.193848	3862.241943	48.701187
683.842346	1100.157715	6708.701660	3831.485840	48.699417
684.170166	1101.727905	6635.251465	3802.062500	48.799549
684.497925	1100.673950	6558.102051	3764.380371	48.808823
684.825623	1100.609375	6474.780762	3728.569580	48.899822
685.153320	1103.814087	6395.049805	3687.188232	48.823643
685.481018	1100.932007	6318.846680	3648.667236	48.826698
685.808533	1097.920898	6247.827637	3610.081787	48.780708
686.136047	1096.910034	6188.508301	3582.229004	48.812157
686.463623	1094.716309	6143.836426	3556.203857	48.750820
686.791016	1093.898926	6115.273438	3543.234619	48.778191
687.118408	1093.038696	6102.132324	3534.653076	48.743633
687.445740	1093.705566	6096.776855	3528.221924	48.660439
687.772949	1094.221558	6093.271484	3520.328857	48.531372
688.100220	1095.705688	6093.701660	3520.909424	48.523521
688.427429	1093.985107	6090.109375	3520.457764	48.567101
688.754517	1094.995972	6091.464355	3515.188232	48.438061
689.081604	1098.157593	6083.226563	3507.961670	48.340439
689.408630	1102.158203	6065.138672	3501.745850	48.349731
689.735657	1102.394653	6042.167480	3489.873291	48.331745
690.062622	1104.502441	6012.873535	3476.667725	48.328972
690.389465	1104.244385	5970.202637	3452.987305	48.268871
690.716248	1105.685425	5911.765137	3424.252441	48.242374
691.043091	1103.599121	5852.058105	3397.324219	48.304619
691.369812	1101.125732	5789.728027	3369.471191	48.379990
691.696533	1100.910645	5724.429688	3339.166992	48.410233
692.023132	1104.050781	5671.025391	3307.980225	48.257973
692.349670	1102.287109	5605.705078	3281.503662	48.390278
692.676270	1101.039673	5552.150391	3254.984131	48.391163
693.002747	1098.523315	5502.918457	3229.453857	48.381916
693.329163	1099.146973	5454.503906	3207.515625	48.408630
693.655518	1098.566284	5414.843262	3186.824951	48.381020
693.981873	1098.286743	5380.150879	3169.704834	48.376545
694.308167	1097.318726	5352.255371	3155.445068	48.370319
694.634399	1099.340576	5318.573730	3135.248535	48.253029
694.960571	1100.588013	5295.774902	3122.537598	48.196888
695.286743	1100.222412	5279.320801	3109.847656	48.087528
695.612854	1098.652222	5266.910645	3105.460205	48.145000
695.938904	1098.630737	5266.072266	3102.879150	48.093021
696.264832	1098.845825	5277.858887	3106.169678	48.033440
696.590820	1100.846191	5295.279785	3115.289307	48.026581
696.916687	1100.394409	5332.553223	3132.194580	48.008602
697.242554	1100.114868	5381.053711	3154.132568	47.980537
697.568359	1099.856689	5452.417480	3185.899902	47.926804
697.894043	1100.738525	5550.967285	3229.238525	47.829006
698.219788	1099.534058	5673.821777	3287.073975	47.822529
698.545349	1101.792358	5811.623535	3346.328369	47.656403
698.870972	1102.136597	5945.833984	3406.830566	47.581295
699.196533	1102.846313	6066.235840	3460.923340	47.509411
699.521973	1101.211670	6169.517578	3505.057861	47.428989
699.847412	1101.125488	6241.720215	3538.846924	47.421001
700.172852	1103.534424	6290.349609	3560.312500	47.365829
700.498169	1104.201172	6309.813965	3565.667725	47.284855
700.823486	1103.749512	6299.876953	3555.450928	47.183243
701.148682	1104.244263	6248.881348	3529.146973	47.134575
701.473816	1103.663574	6161.343750	3487.635986	47.135689
701.799072	1104.351685	6041.027832	3428.424805	47.077690
702.124146	1100.867554	5895.203125	3358.910889	47.098152
702.449158	1100.544922	5739.484863	3286.730225	47.126831
702.774109	1103.018433	5585.810059	3210.311768	47.008511
703.099060	1102.674316	5439.813965	3141.808594	47.015648
703.424011	1102.502197	5303.388672	3081.414063	47.107002
703.748840	1100.630981	5186.169434	3023.729492	47.070869
704.073608	1099.426514	5079.683105	2972.820068	47.067154
704.398315	1100.846069	4983.585449	2931.223633	47.141399
704.723022	1103.513062	4910.414551	2891.627197	46.970329
705.047668	1101.942993	4846.686523	2861.817139	46.995850
705.372253	1101.770996	4791.173828	2834.781494	46.972656
705.696716	1102.953857	4744.007324	2812.112061	46.941311
706.021240	1102.674316	4704.539551	2790.259766	46.853100
706.345764	1097.641357	4671.353027	2780.774658	47.097626
706.670044	1099.942749	4651.285645	2771.547852	47.069664
706.994446	1097.189697	4638.187500	2758.255859	46.909550
707.318665	1095.318604	4627.347168	2749.631104	46.837460
707.642883	1094.587158	4623.282227	2747.243652	46.834778
707.967102	1093.038574	4619.604980	2745.071289	46.845360
708.291260	1092.113770	4615.281250	2745.436768	46.927177
708.615295	1095.447510	4613.969727	2744.318359	46.862595
708.939331	1096.630493	4619.562012	2748.942627	46.901623
709.263367	1096.415527	4626.874512	2753.244385	46.929562
709.587280	1097.641479	4638.832520	2761.223877	46.978050
709.911194	1098.888794	4662.556152	2766.428711	46.792805
710.234985	1098.071533	4684.344238	2777.806396	46.837902
710.558716	1101.104248	4710.605469	2792.797607	46.867786
710.882568	1104.373413	4740.694824	2807.982178	46.849785
711.206177	1105.212158	4770.397949	2823.231445	46.874004
711.529785	1105.319702	4803.110840	2834.781494	46.770134
711.853394	1104.459351	4831.093262	2847.578857	46.774639
712.176880	1103.857178	4846.105469	2852.611572	46.730049
712.500427	1102.394653	4857.935059	2858.375732	46.757080
712.823792	1100.458984	4866.709961	2861.989014	46.771446
713.147217	1100.351440	4868.839355	2860.397461	46.704304
713.470520	1099.878052	4855.547363	2855.300049	46.740589
713.793823	1100.437378	4835.544922	2844.782715	46.701344
714.117004	1100.523438	4811.112305	2833.125244	46.693447
714.440247	1098.200684	4783.754395	2816.155273	46.613201
714.763367	1098.415771	4748.201172	2798.131592	46.570293
715.086365	1097.232788	4712.841797	2786.560303	46.723183
715.409485	1096.781128	4687.011230	2776.494385	46.785671
715.732361	1097.275879	4667.696777	2768.536621	46.808506
716.055298	1097.405029	4649.586426	2758.255859	46.755798
716.378174	1100.308472	4628.573242	2744.082031	46.588726
716.700928	1100.760132	4606.527832	2732.639648	46.548424
717.023804	1101.340820	4585.686035	2721.412598	46.495731
717.346558	1101.728027	4558.823242	2704.055664	46.348957
717.669189	1098.609253	4527.421387	2687.236328	46.331707
717.991760	1097.469238	4488.470215	2669.664307	46.363747
718.314392	1096.587402	4450.594238	2646.844238	46.221039
718.636902	1099.577026	4408.395508	2625.357666	46.112553
718.959351	1100.157715	4350.775391	2600.623291	46.159397
719.281738	1098.566284	4297.457031	2573.243652	46.099651
719.604065	1098.781250	4234.267090	2544.680908	46.114056
719.926453	1097.727417	4175.249023	2523.065430	46.314480
720.248718	1095.963745	4124.210449	2500.610840	46.384830
720.570923	1096.028198	4073.709229	2480.221191	46.485603
720.893066	1093.705322	4031.316406	2462.670654	46.601315
721.215088	1096.178833	3985.740723	2444.001709	46.644539
721.537170	1098.501709	3947.241943	2429.655762	46.727814
721.859192	1100.587891	3913.947754	2420.257080	46.907230
722.181152	1099.103882	3881.728271	2404.964600	46.929104
722.503052	1100.480469	3859.360107	2390.898193	46.773251
722.824951	1102.652832	3835.615479	2381.714355	46.801281
723.146790	1103.190552	3823.097412	2374.982422	46.758656
723.468506	1104.330444	3809.010010	2367.304199	46.695873
723.790161	1104.480957	3791.265625	2359.518066	46.711487
724.111816	1107.599609	3779.392822	2349.818115	46.493813
724.433472	1109.083618	3764.789063	2346.032715	46.577042
724.755005	1108.933105	3761.132813	2342.247070	46.501549
725.076477	1107.642578	3755.927979	2339.859863	46.528870
725.397888	1106.309082	3752.292969	2334.611816	46.421398
725.719299	1106.760864	3754.831055	2335.300293	46.393761
726.040710	1105.642456	3757.368652	2336.741211	46.426315
726.361938	1102.781738	3763.111572	2337.063477	46.395817
726.683167	1101.319336	3769.628174	2340.203857	46.429577
727.004395	1098.523315	3782.791260	2344.419678	46.414753
727.325500	1098.888916	3802.943848	2355.990723	46.489506
727.646667	1097.361816	3818.666504	2369.863525	46.760723
727.967651	1096.738037	3837.765625	2379.155029	46.785995
728.288635	1095.533569	3854.434570	2391.737305	46.982613
728.609558	1096.609009	3870.242920	2400.426514	47.007557
728.930481	1097.748901	3888.051514	2413.524902	47.155312
729.251282	1097.533813	3895.902100	2418.945068	47.220779
729.572021	1097.856567	3901.946045	2425.504883	47.346863
729.892761	1101.147217	3904.398193	2432.709961	47.500660
730.213440	1103.082886	3907.000244	2435.032959	47.503185
730.534119	1103.125854	3909.043701	2441.076660	47.683178
730.854675	1105.298340	3910.914795	2440.582031	47.593239
731.175171	1103.986328	3916.764893	2441.463867	47.550049
731.495605	1106.180176	3921.561035	2444.087891	47.521378
731.816101	1105.470215	3924.852295	2444.281494	47.485981
732.136475	1105.083130	3927.583008	2447.270996	47.553158
732.456787	1101.405273	3927.024170	2448.711914	47.681824
732.777039	1100.803101	3935.347900	2455.487061	47.791939
733.097229	1101.018066	3941.176758	2457.680664	47.767139
733.417480	1098.867310	3944.983398	2456.390381	47.697388
733.737549	1097.125122	3943.112305	2459.638184	47.874882
734.057617	1098.179077	3932.616455	2453.615967	47.820313
734.377563	1095.189331	3911.086670	2446.410645	47.985458
734.697510	1096.071289	3878.867432	2433.785400	48.070862
735.017517	1093.770020	3843.358398	2421.353760	48.283001
735.337341	1093.189331	3805.761963	2404.964600	48.359081
735.657166	1093.683960	3767.800537	2387.156006	48.370068
735.976868	1096.243286	3729.903076	2369.906738	48.360973
736.296631	1096.479980	3685.919434	2352.463867	48.504086
736.616272	1096.609009	3646.989746	2338.031738	48.675976
736.935852	1094.200195	3613.695068	2323.836426	48.804871
737.255371	1092.995728	3579.648193	2310.824219	48.974617
737.574829	1092.716187	3553.386719	2300.306641	49.075668
737.894348	1093.167847	3539.879150	2295.983398	49.160500
738.213745	1090.952515	3535.707031	2294.779053	49.241207
738.533081	1090.780396	3536.954102	2296.047852	49.271538
738.852356	1092.436523	3542.008545	2299.661133	49.283081
739.171570	1091.425659	3550.095947	2306.479492	49.419144
739.490784	1090.414673	3554.031982	2309.318359	49.476181
739.809937	1089.769409	3559.795898	2310.350830	49.415726
740.129028	1086.263550	3556.870850	2309.834717	49.525116
740.447998	1089.360840	3549.062744	2307.468750	49.522583
740.767029	1089.791016	3542.073242	2302.328369	49.445263
741.085999	1090.866333	3529.534180	2300.844238	49.616344
741.404846	1093.941895	3505.854004	2292.348633	49.687000
741.723633	1096.566040	3479.054688	2283.401367	49.814938
742.042358	1097.619995	3447.330566	2273.937744	50.062244
742.361145	1098.308105	3413.713379	2259.376953	50.145382
742.679810	1098.630737	3378.698242	2245.224609	50.287720
742.998413	1098.071411	3342.435303	2227.157715	50.307632
743.316956	1096.544434	3307.721191	2214.059326	50.539375
743.635498	1100.953491	3277.159180	2203.455811	50.661682
743.953979	1099.835205	3247.563477	2199.584229	51.205223
744.272400	1103.276489	3222.377930	2187.195557	51.149937
744.590698	1101.018066	3197.170166	2175.581299	51.263611
744.909058	1098.652222	3172.715576	2168.397461	51.577267
745.227356	1099.361938	3152.347656	2159.084473	51.618599
745.545471	1099.835083	3136.452881	2148.093994	51.470577
745.863586	1101.706299	3118.794678	2144.437500	51.694870
746.181702	1101.835449	3099.072021	2139.490479	51.954536
746.499756	1105.083130	3085.199463	2141.125244	52.322285
746.817810	1108.782593	3073.305420	2142.566162	52.622631
747.135742	1106.696411	3063.347412	2143.383789	52.982742
747.453613	1107.449097	3057.948975	2144.824707	53.185116
747.771423	1105.448730	3051.646729	2152.782959	53.814373
748.089233	1108.997559	3048.893799	2159.235352	54.138863
748.406982	1110.008545	3053.905273	2164.547852	54.248730
748.724609	1109.685913	3058.378906	2174.570557	54.646095
749.042236	1107.018799	3059.346924	2182.076660	55.065430
749.359863	1104.480957	3064.616455	2191.432861	55.452896
749.677429	1103.362427	3072.724854	2196.874268	55.526184
749.994873	1101.577393	3079.026611	2202.466553	55.672184
750.312256	1100.243896	3083.586182	2207.864990	55.846191
750.629639	1103.491699	3088.361084	2213.091309	55.902905
750.946960	1104.222900	3091.178711	2215.435791	55.925396
751.264282	1104.782104	3090.511719	2219.457764	56.134312
751.581482	1103.943237	3088.726563	2225.028320	56.484005
751.898621	1101.728027	3083.779785	2232.534912	57.052338
752.215698	1100.243774	3078.725586	2240.836914	57.649918
752.532715	1102.738770	3077.456787	2249.052979	58.049515
752.849792	1101.534424	3074.101318	2256.968018	58.575127
753.166748	1101.620483	3069.283447	2270.819092	59.420673
753.483643	1101.469849	3068.767090	2281.809570	59.998035
753.800476	1100.501953	3066.680664	2291.854004	60.592258
754.117310	1095.877808	3065.132568	2303.812256	61.339672
754.434082	1092.780518	3060.593994	2316.824463	62.203251
754.750732	1091.791138	3060.551025	2328.374268	62.810257
755.067383	1092.264404	3061.110352	2340.440430	63.396328
755.383911	1093.511963	3057.410889	2350.764160	64.018173
755.700562	1093.425903	3055.905273	2356.614502	64.366974
756.016968	1093.382935	3049.216309	2366.766602	65.106964
756.333435	1095.490601	3043.925537	2378.832520	65.865273
756.649780	1097.447754	3042.161621	2387.543213	66.338577
756.966064	1096.996094	3042.914795	2401.932129	67.060150
757.282410	1097.017578	3046.441650	2415.331787	67.625832
757.598633	1096.630493	3049.990723	2432.538086	68.390228
757.914795	1100.329956	3059.734131	2447.443115	68.751160
758.230896	1099.577148	3072.273438	2469.875977	69.463242
758.546936	1096.673706	3082.403320	2488.394531	70.086121
758.862976	1095.146606	3093.996094	2510.440186	70.805412
759.178894	1094.221558	3103.352295	2535.131348	71.718071
759.494812	1095.296997	3115.203125	2557.263184	72.377930
759.810669	1094.931274	3124.688232	2577.760254	73.054512
760.126526	1094.027832	3134.172852	2594.966797	73.570206
760.442261	1093.662354	3138.109131	2612.495850	74.290688
760.757935	1092.414917	3141.571777	2628.712891	74.972206
761.073608	1095.877808	3145.593750	2643.983643	75.527824
761.389160	1094.006592	3143.851563	2659.899414	76.390793
761.704712	1095.576538	3141.012451	2673.169678	77.127480
762.020203	1098.351074	3145.658447	2689.774170	77.732498
762.335571	1100.458862	3166.349365	2715.454834	78.174324
762.650940	1102.394653	3207.171631	2766.493164	79.062943
762.966370	1100.329956	3283.697021	2844.846924	79.900299
763.281677	1100.867676	3390.075928	2947.268311	80.656738
763.596863	1098.243652	3507.316162	3064.637695	81.624527
763.911987	1100.415894	3602.295898	3160.520508	82.342262
764.227112	1102.867798	3678.735352	3240.788818	82.998085
764.542236	1103.319458	3740.076416	3300.193604	83.317276
764.857178	1103.685059	3780.877441	3347.812500	83.823914
765.172119	1102.609863	3804.622070	3383.580566	84.417480
765.487061	1099.082397	3818.322754	3407.906250	84.906944
765.801880	1095.899292	3806.385742	3415.649170	85.584274
766.116760	1094.608643	3769.692871	3392.850830	85.912888
766.431458	1094.243042	3686.671875	3334.392090	86.411209
766.746155	1093.124634	3573.044678	3248.252197	86.903107
767.060791	1095.296997	3442.340576	3146.067139	87.376740
767.375427	1094.716309	3328.520264	3054.851563	87.748756
767.689941	1093.232300	3229.862549	2978.046387	88.214325
768.004395	1090.027466	3144.906006	2916.705322	88.894691
768.318848	1087.769165	3074.574463	2863.989258	89.400810
768.633179	1088.134888	3014.631836	2817.553467	89.770119
768.947632	1090.457764	2957.291260	2779.699219	90.486992
769.261841	1091.188965	2908.618408	2742.490479	90.859184
769.576111	1091.877197	2861.257813	2707.432373	91.306252
769.890259	1093.038818	2827.167725	2678.482666	91.425949
770.204285	1094.501221	2789.485596	2654.092529	92.012138
770.518433	1092.630127	2756.814697	2628.304443	92.277885
770.832458	1091.081543	2725.714111	2613.485352	93.134315
771.146362	1090.844849	2697.301758	2594.773438	93.617737
771.460205	1091.619263	2670.524170	2576.297852	94.032173
771.774109	1093.490356	2651.468262	2561.952148	94.254341
772.087952	1094.608765	2632.154053	2548.165283	94.537476
772.401672	1094.888550	2615.657227	2536.830322	94.816643
772.715332	1098.071411	2602.666504	2527.173340	94.982491
773.028992	1098.630737	2589.718506	2520.613525	95.365463
773.342590	1098.049927	2572.082031	2512.849121	95.981575
773.656128	1097.103638	2557.994385	2501.600342	96.139748
773.969604	1099.555664	2543.970947	2497.943848	96.813446
774.283020	1100.200928	2532.851563	2491.728271	97.129562
774.596375	1099.577148	2521.043701	2485.533691	97.501877
774.909729	1100.695557	2507.816162	2481.963135	98.162697
775.223022	1101.900024	2492.523926	2477.919922	98.949821
775.536194	1105.836060	2481.941895	2469.768555	99.115379
775.849304	1105.857544	2466.456055	2466.391602	99.995262
776.162476	1104.674561	2453.142822	2460.068115	100.513565
776.475525	1104.739014	2438.840088	2454.239502	101.154289
776.788513	1105.427246	2430.839111	2452.863037	101.661667
777.101440	1103.857178	2424.859863	2449.185303	101.841438
777.414307	1102.502075	2417.826660	2444.646729	102.039047
777.727173	1100.566406	2414.213379	2439.699951	101.940140
778.039978	1102.781738	2408.384521	2435.635010	102.087196
778.352722	1101.211792	2403.846191	2429.397461	101.961510
778.665405	1098.566284	2402.491455	2424.364746	101.677498
778.977966	1092.823608	2397.759521	2427.504883	102.279449
779.290649	1092.436401	2399.566162	2425.655273	101.995911
779.603149	1092.156860	2396.124756	2425.827393	102.277863
779.915588	1090.328613	2397.006836	2426.623291	102.266548
780.227966	1090.199585	2391.801514	2422.773193	102.379501
780.540405	1090.048950	2385.219971	2420.256836	102.705193
780.852722	1088.307007	2382.596191	2415.589355	102.549133
781.164917	1089.554321	2373.412354	2409.760742	102.831184
781.477173	1089.876953	2365.260742	2408.018555	103.352547
781.789246	1090.737305	2355.926270	2402.921143	103.714455
782.101379	1091.360962	2343.107666	2396.253662	104.245750
782.413452	1092.500977	2335.429199	2385.370850	104.018066
782.725403	1091.683716	2324.244873	2373.799561	104.020462
783.037292	1092.586914	2315.189941	2364.959717	104.070801
783.349182	1094.264648	2301.854980	2351.194580	104.085793
783.661072	1094.049561	2294.843262	2341.128906	103.854584
783.972839	1094.845337	2286.003662	2331.794678	103.844246
784.284546	1096.609009	2271.679443	2325.879883	104.612526
784.596191	1097.211182	2261.699463	2314.803223	104.560265
784.907898	1095.383057	2254.236084	2306.500977	104.510056
785.219421	1096.652100	2247.138428	2303.145752	104.868141
785.530884	1095.189453	2243.331787	2300.865723	105.011047
785.842346	1094.737793	2236.341553	2297.768555	105.380760
786.153748	1096.479858	2227.588135	2289.165039	105.443947
786.465149	1096.845581	2220.232178	2284.756104	105.743698
786.776428	1098.093018	2214.403320	2284.197021	106.252174
787.087646	1100.114746	2210.489014	2288.025146	106.982880
787.398804	1100.028809	2215.650879	2296.370361	107.235382
787.709961	1101.448242	2228.491211	2307.102783	106.975029
788.021057	1103.448486	2243.998535	2328.654053	107.422340
788.332031	1105.255127	2260.581299	2346.419678	107.429794
788.643005	1103.792725	2278.411377	2364.938232	107.366379
788.953918	1105.513306	2290.907715	2380.058350	107.520760
789.264832	1108.137329	2298.671875	2391.758789	107.818916
789.575623	1107.040527	2307.898926	2406.427246	108.204826
789.886353	1104.803589	2315.555664	2415.051758	108.217712
790.197083	1102.480835	2321.470459	2418.837402	107.987511
790.507690	1098.695313	2320.459473	2413.202393	107.590904
790.818359	1099.792236	2312.114258	2403.867920	107.568420
791.128845	1098.394287	2292.391357	2387.135010	107.934998
791.439331	1097.297363	2270.732666	2364.916992	108.026375
791.749756	1095.619629	2247.246338	2342.139893	108.239960
792.060120	1096.092896	2224.662842	2318.265869	108.293953
792.370483	1097.361694	2201.928711	2292.886475	108.234695
792.680786	1093.597778	2184.206055	2276.045410	108.420929
792.990967	1093.619263	2169.795898	2257.118408	108.114143
793.301086	1095.189453	2154.396240	2241.030273	108.179146
793.611267	1093.275269	2141.577393	2229.028809	108.342194
793.921326	1095.254028	2130.070557	2220.705078	108.758514
794.231323	1095.834839	2122.757568	2209.348877	108.432114
794.541260	1097.576782	2120.929443	2205.692627	108.282890
794.851074	1098.308105	2121.144287	2202.079102	107.912781
795.161011	1099.297607	2123.252197	2202.918213	107.780228
795.470764	1099.512573	2126.284912	2209.069336	108.062592
795.780518	1099.598755	2132.049072	2219.586914	108.478653
796.090149	1102.050659	2141.147217	2229.437500	108.496834
796.399780	1099.663208	2146.158447	2242.600586	109.215729
796.709412	1098.458618	2155.600586	2250.321777	108.960121
797.018860	1099.512573	2160.504395	2256.279541	109.026947
797.328308	1100.222412	2166.117920	2261.527344	108.951103
797.637756	1098.953369	2165.515625	2267.011963	109.516212
797.947205	1098.738403	2166.655518	2268.968994	109.580658
798.256470	1097.942505	2161.364502	2266.775635	109.912445
798.565674	1098.243652	2157.278076	2263.291260	110.010361
798.874817	1099.125488	2148.309082	2249.741211	109.667717
799.183960	1098.501831	2141.921387	2240.320557	109.430450
799.493103	1098.480225	2131.447021	2223.802490	108.940796
799.802124	1101.749512	2121.531494	2207.563965	108.436356
800.111084	1102.265503	2105.830811	2194.293457	108.814835
800.419983	1103.319458	2098.023438	2183.281250	108.571175
800.728821	1102.846313	2086.774658	2172.570068	108.719681
801.037659	1104.997070	2080.709473	2162.568848	108.389702
801.346436	1102.781738	2071.482666	2152.374023	108.350502
801.655151	1102.953979	2065.804443	2146.029297	108.332016
801.963745	1103.642090	2057.674316	2135.554932	108.163307
802.272400	1102.201050	2050.490479	2129.145508	108.294411
802.580933	1102.201050	2039.693359	2116.262207	108.167412
802.889404	1100.630981	2028.745972	2110.368896	108.794487
803.197815	1099.082520	2021.282837	2103.658447	108.932510
803.506226	1099.297607	2016.185425	2097.076904	108.822395
803.814575	1100.566528	2007.926147	2091.140625	109.171059
804.122864	1101.190308	2004.979614	2085.312256	108.888428
804.431030	1100.007324	2001.473877	2083.333496	109.080719
804.739197	1102.201172	2001.990112	2081.118164	108.794067
805.047241	1102.416138	2005.754028	2080.838379	108.311882
805.355408	1101.426758	2007.345703	2081.784912	108.216980
805.663391	1099.146973	2007.990601	2087.140137	108.708817
805.971313	1099.168457	2010.550049	2092.108398	108.948868
806.279175	1098.286621	2015.131226	2093.506592	108.548378
806.587036	1097.641479	2015.045410	2095.980225	108.822159
806.894836	1098.566284	2019.046021	2097.184570	108.488892
807.202576	1098.351074	2019.497314	2095.765137	108.279663
807.510193	1096.888550	2016.873535	2096.238281	108.626747
807.817810	1095.210938	2012.937622	2093.872314	108.819038
808.125427	1093.791504	2003.044067	2088.667480	109.416901
808.432922	1094.114136	1993.773804	2081.096680	109.706215
808.740295	1094.587280	1982.503540	2072.794678	110.168877
809.047729	1097.576904	1975.276978	2058.728271	109.507950
809.355103	1097.039185	1967.017944	2047.242676	109.221458
809.662415	1098.329590	1958.005981	2035.929565	109.064293
809.969604	1100.652466	1948.585449	2024.637939	108.969162
810.276794	1098.867310	1934.863403	2014.787476	109.560341
810.583923	1098.996460	1925.744141	2005.431274	109.638626
810.890991	1101.254761	1915.011597	1998.333618	110.239182
811.197998	1102.093628	1908.214844	1989.063721	110.029373
811.505005	1103.018433	1904.429321	1982.482300	109.739449
811.811829	1101.706421	1894.557129	1973.255127	109.925957
812.118713	1101.899902	1888.190918	1968.673950	110.235779
812.425537	1099.835205	1879.695313	1965.017700	110.940727
812.732300	1098.222168	1872.963257	1958.651489	111.060242
813.038940	1097.684448	1866.187988	1953.468018	111.357140
813.345581	1098.845825	1863.585571	1951.037476	111.435509
813.652100	1099.060913	1860.918823	1949.596436	111.639656
813.958740	1097.426270	1856.810913	1944.520630	111.550102
814.265137	1096.953125	1852.681152	1937.724121	111.253120
814.571533	1097.921021	1844.830811	1933.443848	111.863953
814.877930	1098.329590	1838.356934	1930.819824	112.494522
815.184265	1099.039429	1836.184448	1930.024170	112.730156
815.490540	1097.770386	1834.356323	1929.292847	112.888725
815.796692	1097.254150	1834.635864	1927.851929	112.641495
816.102844	1099.211426	1837.539551	1928.819824	112.363106
816.408936	1100.523438	1839.324341	1930.131714	112.291183
816.714966	1099.211426	1841.475098	1928.733643	111.755737
817.020935	1100.673950	1842.270996	1926.647217	111.377640
817.326843	1103.964722	1845.712402	1931.164063	111.520317
817.632690	1102.158081	1852.294067	1936.519531	111.228027
817.938477	1101.835449	1856.961304	1942.283691	111.299095
818.244263	1101.792480	1867.629272	1946.714355	110.326622
818.549988	1100.760010	1873.328857	1955.274536	110.606911
818.855652	1103.470093	1885.846558	1965.490967	110.179810
819.161194	1103.706665	1902.515503	1984.654297	110.282661
819.466797	1103.771118	1925.163330	2015.217285	110.963577
819.772278	1103.255005	1952.435425	2049.995850	111.488777
820.077698	1102.738770	1988.138794	2093.119629	111.856880
820.383057	1101.813843	2028.810669	2143.340820	112.354965
820.688354	1098.673706	2080.752441	2202.401855	112.386932
820.993652	1101.663330	2157.772705	2289.595459	112.481926
821.298828	1101.684814	2304.586670	2456.454834	112.625153
821.604004	1100.630981	2572.469482	2769.267822	113.370918
821.909058	1099.835205	2981.638184	3232.508057	113.331360
822.214111	1096.953125	3465.762695	3783.028076	113.393456
822.519165	1097.985474	3929.153320	4307.114258	113.349998
822.824036	1096.824097	4320.793457	4747.663574	113.240517
823.128906	1095.361450	4639.757813	5110.074219	113.269295
823.433716	1096.178833	4895.488281	5400.045410	113.280235
823.738525	1094.673340	5104.998047	5629.429199	113.077026
824.043213	1094.049683	5264.351074	5806.547363	113.001373
824.347900	1090.887817	5364.987793	5917.873047	112.935715
824.652466	1090.414551	5375.397949	5925.508301	112.838097
824.957031	1093.103149	5241.897461	5765.144531	112.612030
825.261536	1093.318237	4947.731445	5427.403809	112.444756
825.565979	1093.167725	4563.447266	4983.649902	112.108612
825.870300	1095.705688	4180.711426	4548.692871	111.928062
826.174622	1097.125122	3872.071045	4199.466797	111.798286
826.478821	1098.157593	3660.776367	3956.017090	111.521057
826.783142	1096.867188	3533.771240	3807.826660	111.246048
827.087280	1097.469482	3464.859375	3733.644775	111.353661
827.391357	1099.361938	3414.552246	3681.036621	111.510254
827.695435	1101.211670	3371.278320	3637.332275	111.720093
827.999451	1102.416138	3325.917725	3587.369385	111.758553
828.303406	1102.179565	3276.857910	3535.320068	111.885086
828.607239	1101.964478	3237.540771	3488.840820	111.767326
828.911011	1102.459106	3190.309326	3439.135986	111.917839
829.214844	1099.942749	3143.464844	3386.957031	111.915314
829.518616	1098.609375	3076.682617	3311.097900	111.850685
829.822205	1098.781372	2972.583496	3191.642822	111.690628
830.125793	1098.673706	2829.640869	3032.698242	111.730865
830.429382	1099.168457	2664.308838	2845.040771	111.547333
830.732849	1098.824341	2509.278564	2669.814697	111.381874
831.036316	1096.824097	2377.025635	2517.731445	110.990913
831.339661	1096.651978	2268.861816	2391.629639	110.473198
831.642944	1093.748413	2178.850830	2290.133057	110.255455
831.946228	1096.286377	2102.174561	2209.413574	110.661125
832.249512	1098.222046	2045.307129	2146.265869	110.659943
832.552673	1099.082275	2010.528564	2107.530029	110.642586
832.855774	1102.932373	1996.849487	2094.431641	110.916245
833.158813	1104.997192	2013.561401	2121.058350	111.831520
833.461731	1103.921753	2059.653076	2176.914795	112.269318
833.764771	1103.900269	2119.768066	2247.073975	112.531738
834.067627	1103.104492	2185.711914	2319.642334	112.371094
834.370422	1102.975464	2241.912354	2388.425049	112.863991
834.673157	1101.663452	2288.176025	2443.722412	113.109543
834.975891	1101.900024	2330.245850	2487.426758	112.796143
835.278564	1098.308105	2362.443115	2519.968506	112.461121
835.581177	1096.910156	2382.402588	2543.261475	112.513405
835.883728	1095.985229	2384.703857	2548.832031	112.735764
836.186218	1092.802002	2366.636963	2532.937500	113.055107
836.488647	1090.307129	2323.083252	2477.984619	112.565247
836.791077	1092.092285	2254.881348	2396.146484	112.148819
837.093384	1090.586792	2176.441650	2305.124512	111.850838
837.395630	1090.737305	2090.258789	2212.102295	112.190186
837.697815	1093.017090	2016.034790	2123.166260	111.606651
838.000061	1094.286255	1949.897705	2050.469238	111.754349
838.302124	1096.006714	1888.363281	1983.794434	112.043968
838.604126	1098.996338	1832.979980	1925.894531	112.658943
838.906128	1098.566284	1788.243042	1877.437012	112.932724
839.208069	1100.910645	1753.615112	1835.689819	112.574562
839.510010	1100.050293	1732.945801	1804.718262	111.340332
839.811829	1101.061157	1722.105835	1789.920654	110.919472
840.113586	1101.985962	1716.105103	1784.866455	111.196747
840.415222	1102.351685	1711.566895	1780.994995	111.396317
840.716919	1102.050537	1712.921875	1779.919434	110.967537
841.018555	1100.630981	1710.857056	1776.349121	110.732430
841.320068	1100.523560	1709.136353	1770.455811	110.075279
841.621521	1097.641357	1705.630737	1766.154175	109.954689
841.922974	1097.512329	1703.781128	1761.400879	109.503998
842.224365	1096.221802	1698.167480	1753.615112	109.211403
842.525635	1095.727173	1688.209351	1744.022583	109.420235
842.826965	1097.619873	1671.691040	1727.977661	109.804817
843.128174	1098.673706	1646.139526	1705.071533	110.764511
843.429260	1097.447754	1618.781250	1676.508911	111.073074
843.730408	1101.663208	1595.208496	1646.462036	110.384766
844.031433	1103.362427	1574.797241	1619.447998	109.471245
844.332397	1105.384277	1555.224976	1596.369873	109.146545
844.633362	1105.083130	1538.384277	1576.776123	108.860313
844.934204	1106.029419	1523.844604	1560.537476	108.782082
845.235046	1107.234009	1509.713989	1543.804321	108.470070
845.535828	1108.266357	1497.755371	1528.533325	107.902138
845.836487	1108.546021	1485.108521	1515.736206	108.133492
846.137146	1107.642700	1474.763428	1503.863647	107.926605
846.437744	1105.556396	1465.708496	1491.130981	107.058823
846.738281	1105.147583	1457.642944	1481.839722	106.864426
847.038757	1102.179565	1449.856934	1476.462646	107.652412
847.339172	1099.749146	1439.275024	1469.795044	108.989014
847.639526	1098.329590	1433.338867	1464.998779	109.450455
847.939819	1097.748901	1427.101563	1462.783447	110.833946
848.240112	1097.512207	1421.896606	1457.922607	111.105957
848.540283	1096.479980	1416.369141	1451.749756	111.060272
848.840393	1097.533813	1413.573120	1448.760254	111.133781
849.140564	1094.888428	1410.583374	1445.619995	111.098251
849.440552	1096.888672	1405.034302	1441.598022	111.865730
849.740540	1097.082153	1402.818970	1438.049194	111.523056
850.040405	1098.910400	1400.259644	1433.274414	110.955650
850.340210	1097.985596	1397.183838	1429.316895	110.739723
850.640137	1098.695435	1395.613770	1426.499268	110.402016
850.939819	1098.652344	1392.194092	1424.585083	111.034546
851.239502	1096.910156	1388.193481	1419.294067	110.677094
851.539185	1096.178955	1387.333130	1416.777710	110.113052
851.838745	1095.748779	1385.676880	1416.756226	110.719673
852.138245	1094.458130	1379.504272	1416.025024	112.812225
852.437744	1095.920776	1376.944824	1409.830566	111.702110
852.737122	1094.608643	1377.912598	1406.066772	109.937798
853.036499	1095.641113	1375.912354	1406.927002	111.065941
853.335815	1094.802246	1372.449585	1404.948242	111.705009
853.635010	1095.963623	1369.954712	1402.324219	111.814072
853.934204	1095.899170	1371.395630	1398.409790	109.805626
854.233276	1095.985229	1372.707886	1395.871948	108.370857
854.532410	1095.791748	1372.428223	1393.247925	107.526016
854.831482	1096.157349	1368.943848	1391.462891	108.255188
855.130371	1094.974487	1366.298340	1388.688354	108.252136
855.429260	1096.049927	1364.212158	1383.139160	107.058044
855.728088	1094.479736	1360.727783	1382.386475	108.134781
856.026855	1094.221558	1355.888550	1381.461548	109.773109
856.325623	1094.264526	1354.361450	1377.676147	108.963852
856.624329	1094.737793	1354.124878	1377.009399	108.822540
856.922913	1095.124878	1352.404175	1376.105957	109.212471
857.221436	1097.426270	1348.661743	1377.224487	111.368912
857.519958	1097.727417	1345.715088	1376.020020	112.220337
857.818420	1097.942383	1343.327759	1374.922974	112.875755
858.116821	1099.856567	1341.951172	1371.825928	112.340118
858.415161	1102.179565	1343.241699	1371.567871	111.750572
858.713379	1102.738770	1342.553589	1371.890503	112.233154
859.011658	1107.018799	1343.542847	1370.600098	111.439537
859.309814	1108.115723	1343.306274	1366.900635	110.032021
859.607910	1107.470581	1341.456543	1364.814331	109.982559
859.905945	1108.868652	1340.897339	1361.609497	108.926552
860.203979	1107.707153	1340.209106	1359.695313	108.381096
860.501953	1107.879272	1338.531494	1356.791870	107.916847
860.799744	1107.707153	1335.713989	1356.684448	109.197296
861.097656	1109.642822	1335.950439	1356.017456	108.867142
861.395325	1109.513794	1336.337646	1355.738037	108.553062
861.693115	1108.416870	1335.090088	1353.415039	108.084305
861.990784	1108.804199	1335.434326	1349.457520	106.187698
862.288330	1107.384521	1333.261963	1348.425171	106.713028
862.585815	1104.739136	1334.401855	1350.468384	106.995705
862.883301	1106.244629	1334.294434	1350.618896	107.158287
863.180786	1106.072632	1332.702881	1351.221191	108.171158
863.478149	1107.018799	1330.745605	1350.188721	108.690559
863.775452	1105.319824	1330.272339	1348.919800	108.289513
864.072693	1108.072876	1331.455200	1347.865967	107.346497
864.369873	1109.750366	1331.390747	1348.446655	107.695305
864.667114	1108.997681	1328.680664	1347.199341	108.429726
864.964111	1108.223511	1327.970947	1348.790894	109.474487
865.261169	1106.653198	1327.347168	1353.587158	111.889763
865.558105	1105.190796	1328.938843	1355.350708	111.804291
865.855042	1105.362793	1327.261230	1353.866699	111.989929
866.151917	1103.878662	1326.099731	1354.812988	112.921036
866.448730	1100.652466	1325.863159	1354.770020	112.835472
866.745422	1102.373047	1327.454590	1354.318359	111.935127
867.042114	1100.781616	1327.583862	1354.318359	111.787582
867.338806	1096.609009	1324.422241	1353.823730	112.905960
867.635376	1094.673218	1321.066895	1350.554443	113.024902
867.931824	1096.458496	1322.765991	1350.231934	112.136559
868.228271	1096.781128	1320.077515	1348.253052	112.617996
868.524658	1096.307861	1319.561401	1345.285034	111.522163
868.821045	1098.824341	1318.120361	1342.058716	110.916000
869.117310	1098.458618	1315.474731	1339.542358	111.090248
869.413574	1096.888550	1314.958740	1335.176147	109.271057
869.709717	1097.856567	1312.205566	1334.595581	110.445587
870.005859	1095.038940	1308.957886	1333.627686	111.532310
870.301880	1096.437012	1308.463257	1334.681519	112.365570
870.597900	1095.490601	1308.334106	1333.842651	111.984650
870.893860	1095.813232	1311.990479	1332.659790	109.561279
871.189636	1092.371948	1311.753906	1332.960938	109.666718
871.485535	1092.845093	1311.108643	1329.971191	108.642097
871.781311	1092.006348	1310.269897	1331.562866	109.755623
872.077026	1090.264160	1310.700073	1332.078979	109.698471
872.372681	1091.963379	1311.818481	1335.563232	110.800179
872.668274	1093.210815	1312.807861	1336.208618	110.656227
872.963806	1092.715942	1314.592896	1335.907349	109.606430
873.259338	1093.275269	1318.679565	1334.982666	107.232826
873.554688	1093.812988	1319.346191	1335.219238	107.038010
873.850098	1096.695190	1320.507813	1334.143799	106.092590
874.145447	1096.501465	1318.335449	1337.800171	108.774452
874.440674	1100.265503	1317.582520	1338.316406	109.540848
874.735840	1099.362183	1320.335693	1339.327271	108.594505
875.031006	1101.577393	1323.110107	1337.929199	106.689346
875.326050	1100.437378	1323.970581	1339.649902	107.014313
875.621094	1101.190186	1325.389893	1339.800537	106.427589
875.916077	1103.599121	1325.583618	1342.467529	107.605896
876.210999	1106.502686	1326.917114	1341.757690	106.733032
876.505798	1107.363037	1322.895142	1343.413940	109.520065
876.800598	1106.997192	1321.776855	1343.822388	110.264252
877.095337	1104.007690	1322.077881	1344.295532	110.188301
877.390015	1106.201538	1323.088745	1344.274170	109.767944
877.684692	1105.728516	1322.335938	1340.531738	108.400360
877.979187	1107.470581	1319.884033	1342.553467	110.672318
878.273804	1105.534790	1319.862549	1343.542847	111.048637
878.568237	1106.136963	1322.701660	1343.843872	109.762535
878.862610	1103.061401	1325.884766	1347.392700	109.652458
879.156921	1100.889160	1330.896118	1350.812622	108.659088
879.451172	1098.071533	1337.219604	1356.318726	107.986313
879.745422	1098.759888	1348.382202	1366.750122	107.358284
880.039612	1097.555298	1361.480591	1379.827026	106.951378
880.333679	1098.587769	1381.999146	1404.539673	107.953293
880.627686	1097.017578	1415.164673	1442.737915	108.666824
880.921692	1096.221802	1469.020752	1504.573486	109.536705
881.215698	1096.350830	1556.386353	1601.811401	109.874245
881.509460	1099.362183	1671.239380	1738.667114	111.790596
881.803345	1099.469604	1812.289063	1893.933594	111.453743
882.097046	1101.512817	1959.898804	2060.728271	111.746399
882.390808	1102.115112	2098.131104	2221.329102	112.369080
882.684448	1103.685059	2225.781250	2365.820068	112.480110
882.978027	1101.082642	2336.439941	2489.749268	112.410118
883.271545	1102.566772	2432.086426	2595.676514	112.304451
883.565002	1103.147583	2508.117432	2678.267334	112.110573
883.858398	1102.588379	2560.855225	2733.048340	111.808067
884.151733	1101.211670	2581.567383	2757.352539	111.874519
884.445068	1100.846069	2557.413818	2725.649658	111.550156
884.738281	1099.233032	2489.964600	2640.069092	110.793205
885.031433	1099.168335	2383.198486	2523.710693	110.943062
885.324585	1100.738403	2262.624268	2383.972656	110.444092
885.617676	1098.738281	2142.071777	2243.804932	109.750778
885.910645	1097.576904	2026.401489	2115.272705	109.568138
886.203552	1099.168457	1921.829590	1997.946533	109.252525
886.496521	1099.942749	1824.979004	1889.825684	108.943924
886.789368	1100.673950	1740.645996	1795.512817	108.573318
887.082153	1102.760254	1661.023071	1710.254761	108.818733
887.374817	1103.728149	1595.316040	1634.396118	107.949760
887.667480	1103.577637	1537.825073	1571.872192	107.840485
887.960083	1104.222900	1492.916382	1524.403931	108.100868
888.252625	1103.642212	1455.427734	1485.173096	108.455536
888.545166	1103.190552	1428.241699	1457.019165	108.853210
888.837524	1105.599487	1404.969849	1434.306641	109.799500
889.129883	1107.255493	1386.171875	1412.432861	109.415359
889.422241	1106.696411	1371.417358	1394.430664	108.693420
889.714478	1093.511841	1322.292847	1354.705444	114.167519
890.006714	1107.707153	1357.544556	1375.761963	107.291702
890.298767	1110.072998	1317.324585	1362.512939	121.803619
890.590881	1113.858398	1319.453735	1329.863647	105.063301
890.882935	1094.694824	1328.207642	1329.863647	100.709167
>>>>>End Processed Spectral Data<<<<<
