Jaz Data File
++++++++++++++++++++++++++++++++++++
Date: Thu Dec 19 19:56:11 2019
User: jaz
Dark Spectrum Present: Yes
Reference Spectrum Present: Yes
Processed Spectrum Present: Yes
Spectrometers: JAZA2928
Integration Time (usec): 32200 (JAZA2928)
Spectra Averaged: 10 (JAZA2928)
Boxcar Smoothing: 5 (JAZA2928)
Correct for Electrical Dark: No (JAZA2928)
Strobe/Lamp Enabled: Yes (JAZA2928)
Correct for Detector Non-linearity: No (JAZA2928)
Correct for Stray Light: No (JAZA2928)
Number of Pixels in Processed Spectrum: 2048
>>>>>Begin Processed Spectral Data<<<<<
W	D	R	S	P
190.104553	0.000000	0.000000	0.000000	0.000000
190.488098	0.000000	0.000000	0.000000	0.000000
190.871613	1222.216064	1221.506226	1202.579102	2766.397217
191.255096	1238.540649	1233.335571	1222.925659	299.995300
191.638535	0.000000	0.000000	0.000000	0.000000
192.021942	1036.773560	1030.450195	1023.158997	215.305695
192.405334	1155.648560	1147.669067	1139.410034	203.503250
192.788696	1274.652466	1262.909058	1255.617920	162.087067
193.172012	1281.298462	1269.963745	1262.629517	164.705887
193.555313	1285.621704	1275.921387	1266.759155	194.452911
193.938568	1287.686401	1279.212036	1269.899292	209.893112
194.321793	1290.460938	1281.040405	1273.125488	184.017731
194.704987	1289.019897	1284.245117	1275.727905	278.379150
195.088150	1289.234985	1288.267090	1277.814331	1179.947021
195.471298	1289.493042	1288.654419	1277.986206	1372.110596
195.854401	1289.772705	1286.008911	1278.201294	307.440094
196.237457	1290.568481	1284.460205	1277.814209	208.803131
196.620499	1288.439331	1282.847168	1276.867798	206.924103
197.003494	1284.438721	1283.922485	1276.609741	1516.552368
197.386475	1282.524536	1283.363403	1275.405396	-848.661255
197.769424	1281.212402	1279.771484	1276.351685	337.334808
198.152344	1276.953857	1280.287720	1277.534668	17.421553
198.535217	1276.007568	1284.933472	1274.760254	-13.974097
198.918076	1276.867920	1284.051636	1273.469604	-47.305817
199.300903	1277.900269	1285.406616	1272.759888	-68.480453
199.683670	1277.362671	1288.159668	1273.383667	-36.852875
200.066422	1276.029175	1290.396362	1275.620605	-2.843767
200.449142	1272.996338	1293.257080	1278.631714	27.814262
200.831848	1272.308105	1295.923950	1280.782471	35.884235
201.214508	1273.082520	1297.494019	1279.491943	26.255756
201.597137	1270.372437	1297.322144	1280.954468	39.265850
201.979736	1270.437012	1300.462280	1280.115601	32.234814
202.362274	1269.383057	1301.989380	1277.470093	24.802048
202.744827	1266.500977	1300.075073	1279.040161	37.347794
203.127319	1266.672974	1301.387085	1280.803833	40.706383
203.509796	1265.511597	1299.752441	1281.363159	46.294308
203.892227	1264.479126	1296.504761	1278.889648	44.996838
204.274643	1262.263794	1295.128174	1275.125854	39.136780
204.657013	1263.597534	1293.515137	1272.695313	30.409451
205.039352	1263.640503	1292.095581	1271.082153	26.152275
205.421661	1264.092163	1289.751221	1272.308228	32.020134
205.803940	1264.909424	1291.364380	1270.458496	20.975550
206.186188	1265.898804	1292.547241	1271.232788	20.016125
206.568405	1264.973755	1292.353638	1271.619873	24.273727
206.950592	1264.758911	1290.504028	1268.931519	16.207375
207.332748	1262.328491	1288.654297	1267.963623	21.405354
207.714859	1261.661621	1287.793945	1268.071167	24.527271
208.096939	1260.478760	1288.116577	1270.350952	35.719872
208.478989	1260.220581	1289.772583	1272.630859	41.994713
208.861008	1258.392456	1290.697388	1272.458740	43.542221
209.243011	1256.542847	1291.041504	1272.910278	47.443676
209.624969	1254.563965	1292.740723	1273.942749	50.760685
210.006897	1256.112671	1290.503906	1274.953613	54.784138
210.388794	1252.155273	1290.288940	1272.974976	54.596642
210.770645	1254.585693	1292.611816	1275.405396	54.751053
211.152481	1253.273560	1292.353638	1276.222656	58.723263
211.534286	1252.133789	1291.041626	1278.029419	66.556335
211.916061	1251.208862	1291.536255	1278.416626	67.467201
212.297791	1251.488403	1293.773193	1277.104492	60.579914
212.679489	1250.240967	1292.418213	1274.609497	57.776485
213.061157	1249.832275	1292.224731	1272.996582	54.642521
213.442795	1248.907471	1290.891113	1270.028198	50.307037
213.824402	1249.208618	1290.891113	1265.984863	40.247700
214.205963	1249.251587	1292.998901	1266.092407	38.495667
214.587524	1250.778687	1292.697754	1266.694580	37.968147
214.969025	1250.004395	1290.955688	1263.296387	32.458054
215.350510	1251.638916	1293.730347	1263.704956	28.666262
215.731949	1254.628540	1297.343628	1263.124268	19.889290
216.113358	1253.961792	1301.021484	1261.339111	15.676515
216.494736	1254.542603	1302.505493	1260.779907	13.004438
216.876083	1258.156006	1306.893066	1262.134888	8.163976
217.257401	1258.543091	1309.237427	1263.618896	10.012569
217.638702	1260.457275	1314.420898	1266.436401	11.079920
218.019943	1260.607910	1316.421265	1267.576416	12.485373
218.401169	1260.048706	1319.152710	1266.350464	10.662150
218.782349	1262.521973	1321.927246	1268.049561	9.304877
219.163498	1263.059692	1323.755371	1269.619629	10.807914
219.544632	1262.479004	1325.282593	1269.038940	10.445162
219.925705	1262.070313	1328.229248	1268.953003	10.403267
220.306778	1261.704712	1329.971313	1268.092651	9.357342
220.687805	1260.328247	1330.100464	1268.953003	12.361304
221.068802	1259.102417	1331.304810	1271.383301	17.008970
221.449738	1259.575439	1335.176270	1274.588013	19.857683
221.830673	1260.844482	1340.144653	1275.598877	18.605753
222.211563	1260.564819	1345.908691	1278.007813	20.438484
222.592438	1260.005615	1350.704956	1280.997437	23.144403
222.973267	1257.661133	1356.189453	1284.696777	27.439466
223.354065	1257.489136	1360.684570	1287.664917	29.241392
223.734848	1257.983765	1367.545776	1290.482544	29.662453
224.115555	1257.058838	1371.632324	1294.353882	32.551201
224.496262	1259.274292	1378.923584	1299.193237	33.363293
224.876923	1259.166748	1387.118164	1302.225952	33.652775
225.257568	1258.413940	1396.839844	1308.205200	35.969612
225.638168	1257.467651	1405.399902	1312.700317	37.336460
226.018723	1255.510376	1415.358154	1317.969727	39.074268
226.399277	1256.671875	1429.618042	1324.744873	39.360802
226.779785	1256.284668	1448.308594	1331.347778	39.090500
227.160263	1256.564331	1469.364868	1338.897095	38.690109
227.540695	1255.811523	1498.056519	1348.317627	38.187004
227.921112	1255.682495	1535.050659	1362.061279	38.078350
228.301483	1256.327637	1587.142944	1380.192505	37.442303
228.681824	1255.940552	1654.613770	1407.852051	38.104263
229.062134	1257.187988	1742.345215	1439.963379	37.673435
229.442413	1256.822388	1835.195313	1471.236084	37.071877
229.822647	1256.736450	1917.162231	1498.271606	36.572643
230.202881	1256.370850	1976.868774	1521.005737	36.729446
230.583054	1255.919067	2022.057129	1536.018311	36.559891
230.963196	1257.231079	2059.610352	1549.374878	36.409691
231.343292	1256.671875	2089.786133	1561.075073	36.537991
231.723404	1257.381592	2115.445068	1568.925659	36.307812
232.103439	1258.865601	2118.628174	1571.506592	36.363644
232.483459	1259.683105	2104.992188	1566.430786	36.288227
232.863434	1258.586060	2070.450195	1550.041504	35.899536
233.243393	1258.285034	2015.389771	1531.028198	36.024494
233.623306	1259.682983	1957.339478	1509.477417	35.804790
234.003174	1262.436035	1916.216064	1495.002319	35.572559
234.383041	1264.672852	1894.191772	1487.840210	35.450462
234.762848	1262.823120	1883.179688	1484.549438	35.741753
235.142639	1262.758667	1874.318359	1483.022339	36.016708
235.522385	1263.877075	1869.134888	1476.613037	35.147991
235.902115	1263.984619	1861.284424	1475.709595	35.447018
236.281799	1261.790894	1867.285156	1474.591187	35.144890
236.661438	1260.521851	1877.587524	1476.828003	35.053993
237.041077	1259.962646	1886.642456	1482.183594	35.460045
237.420654	1258.521606	1899.052368	1484.334473	35.254025
237.800217	1259.618530	1908.171875	1485.237793	34.788082
238.179733	1258.392456	1913.032715	1484.850708	34.592777
238.559219	1255.639526	1920.151855	1485.065796	34.525509
238.938690	1257.015991	1925.270630	1488.119995	34.583225
239.318100	1257.059082	1934.110840	1492.141846	34.721535
239.697510	1257.037476	1949.876099	1498.443726	34.843071
240.076859	1259.962524	1975.535156	1505.369263	34.295155
240.456177	1263.360840	2010.206177	1519.521484	34.299023
240.835464	1266.350464	2052.361816	1534.598755	34.127789
241.214722	1268.243286	2118.499023	1553.332397	33.529808
241.593948	1271.835083	2203.584961	1581.249878	33.207924
241.973129	1272.007080	2313.103760	1619.921143	33.418037
242.352295	1273.104004	2449.937988	1668.830444	33.626362
242.731415	1274.028809	2594.773438	1716.944092	33.535271
243.110519	1276.136597	2738.920410	1762.605469	33.256374
243.489578	1279.879028	2854.095703	1797.039917	32.851952
243.868607	1280.524292	2936.471680	1823.752808	32.804695
244.247604	1278.610107	2992.048340	1840.185059	32.774742
244.626541	1278.545654	3030.138916	1849.906738	32.619507
245.005493	1277.706665	3060.357910	1856.273071	32.455391
245.384369	1278.093872	3082.252930	1863.370728	32.440426
245.763229	1277.039917	3105.395264	1869.393066	32.398140
246.142059	1276.695801	3143.271240	1881.566528	32.405373
246.520859	1278.373413	3211.688232	1901.676636	32.240131
246.899612	1283.535278	3337.144531	1938.842529	31.910025
247.278336	1285.127075	3500.261475	1990.139038	31.827053
247.657043	1286.783081	3670.949219	2046.683716	31.872807
248.035690	1292.074097	3825.097412	2095.700439	31.725973
248.414322	1294.633545	3956.468994	2138.394043	31.698446
248.792908	1296.332642	4057.556885	2173.645752	31.772615
249.171478	1296.440308	4134.491211	2201.304932	31.883314
249.550003	1297.472656	4170.065430	2212.446289	31.851839
249.928482	1299.150269	4163.354980	2209.865479	31.796444
250.306961	1300.655762	4105.949707	2187.583008	31.616196
250.685364	1299.193237	3984.687500	2146.911377	31.566561
251.063782	1295.364746	3801.374268	2086.968506	31.588219
251.442123	1292.891357	3596.402344	2017.884766	31.473408
251.820450	1288.761841	3427.220215	1961.038696	31.437452
252.198761	1285.148438	3321.271729	1925.701050	31.459421
252.576996	1283.771973	3252.962402	1903.741333	31.483463
252.955246	1284.266724	3202.784180	1887.782349	31.457396
253.333420	1282.395508	3155.960938	1870.984497	31.415449
253.711578	1282.094360	3120.386719	1857.025757	31.275297
254.089706	1281.234009	3094.641602	1850.981934	31.418636
254.467804	1278.696167	3074.488281	1845.798462	31.579508
254.845871	1278.954224	3059.067383	1841.109863	31.579769
255.223877	1279.362915	3035.322754	1836.507324	31.728767
255.601898	1279.986572	3003.275635	1829.215942	31.870995
255.979828	1278.072266	2957.786133	1814.224976	31.919289
256.357727	1275.921509	2903.155518	1796.803223	32.010254
256.735657	1277.986328	2861.386719	1782.263794	31.847754
257.113525	1275.469849	2853.579346	1775.230835	31.668333
257.491333	1275.814087	2883.432617	1781.898071	31.480352
257.869110	1277.921875	2942.601318	1803.019043	31.543440
258.246887	1279.448975	3030.805664	1829.473877	31.405647
258.624573	1278.932617	3157.036133	1866.596924	31.290304
259.002289	1279.792969	3341.295898	1920.237915	31.066895
259.379944	1281.255493	3600.080322	1996.010864	30.824036
259.757538	1282.567505	3934.035400	2095.700439	30.667276
260.135162	1288.331665	4299.199219	2209.327393	30.589046
260.512665	1292.977417	4625.433105	2310.372314	30.529886
260.890228	1291.622437	4865.914551	2385.413818	30.601624
261.267700	1292.805298	5017.804199	2432.602539	30.598591
261.645142	1295.235718	5103.686035	2460.154297	30.587732
262.022552	1294.805542	5155.219238	2473.962646	30.544838
262.399994	1293.084839	5181.330078	2479.103027	30.502661
262.777313	1296.268066	5170.166992	2474.134521	30.405193
263.154602	1296.010010	5093.103516	2452.777100	30.464540
263.531921	1295.536865	4939.601074	2402.319336	30.372200
263.909149	1293.988281	4691.892578	2327.772461	30.424170
264.286377	1290.611450	4405.685547	2235.567383	30.334942
264.663574	1287.385254	4147.826172	2152.266602	30.235945
265.040710	1289.364136	3970.470947	2094.130371	30.016193
265.417816	1288.245605	3871.103271	2063.008301	29.996338
265.794891	1288.611206	3844.691650	2053.845947	29.937819
266.171936	1288.976929	3865.167236	2056.383789	29.788437
266.548950	1289.170532	3915.560791	2071.568604	29.789865
266.925934	1287.621948	3973.847412	2087.312500	29.770044
267.302887	1286.912231	4037.941162	2101.335693	29.604322
267.679810	1286.202515	4101.884766	2116.735352	29.496683
268.056671	1288.869385	4178.711426	2139.899414	29.449015
268.433502	1289.901733	4260.613770	2160.504150	29.306189
268.810333	1290.138184	4344.064453	2184.270508	29.278124
269.187073	1288.159546	4420.568848	2206.595947	29.320448
269.563843	1291.127808	4495.244629	2226.125244	29.181129
269.940521	1290.525513	4550.649414	2237.223389	29.038708
270.317200	1290.826538	4602.333496	2250.708984	28.986275
270.693848	1291.837402	4668.664063	2265.807617	28.842766
271.070435	1295.063599	4802.809570	2301.145508	28.681721
271.447021	1298.569458	4975.347168	2351.108398	28.626667
271.823547	1300.892456	5153.003418	2404.427002	28.647528
272.200043	1301.236450	5297.623535	2437.613770	28.435116
272.576538	1301.731201	5417.380371	2474.263428	28.489605
272.952972	1303.602417	5524.404297	2502.331543	28.400507
273.329346	1305.452026	5626.266602	2525.990479	28.247879
273.705688	1305.495117	5704.082520	2546.379883	28.210983
274.082062	1306.118896	5763.487793	2563.134521	28.200842
274.458344	1304.914429	5788.759766	2570.942139	28.235313
274.834595	1307.861206	5770.413574	2564.769287	28.165678
275.210846	1304.936035	5690.102051	2542.551514	28.222775
275.587006	1301.774292	5586.046387	2508.353760	28.162998
275.963165	1300.913818	5493.390137	2480.371582	28.132721
276.339294	1300.182495	5446.760742	2467.294922	28.146399
276.715393	1300.763184	5423.337891	2458.454834	28.081762
277.091461	1301.064331	5414.713867	2457.745361	28.118124
277.467438	1302.591553	5411.982422	2456.282715	28.074507
277.843445	1302.526978	5416.176270	2452.884521	27.964403
278.219452	1303.602417	5431.188965	2453.486816	27.858519
278.595337	1304.226196	5454.288574	2458.024902	27.801960
278.971191	1304.570313	5486.980957	2462.283691	27.680529
279.347046	1307.344849	5512.983887	2465.746338	27.544006
279.722870	1309.753784	5537.567871	2472.715088	27.507391
280.098663	1310.377441	5561.312988	2478.307129	27.474651
280.474396	1310.979614	5597.123535	2484.652100	27.382946
280.850098	1312.055054	5649.495605	2497.363281	27.327366
281.225800	1313.108887	5724.945801	2511.020996	27.152229
281.601440	1313.517578	5833.131348	2538.120850	27.095308
281.977051	1313.797119	5982.203613	2578.190430	27.084045
282.352600	1314.700439	6137.964355	2619.636475	27.055042
282.728149	1317.496582	6282.090332	2656.888428	26.978882
283.103668	1317.475098	6392.448242	2687.322510	26.992210
283.479156	1319.604370	6480.501953	2712.357666	26.986649
283.854553	1319.668945	6564.039551	2727.929443	26.852802
284.229950	1320.851929	6661.018555	2748.620117	26.736399
284.605347	1322.895142	6765.247070	2776.214844	26.703890
284.980652	1320.787354	6863.861328	2797.421875	26.639271
285.355988	1320.916382	6953.184570	2823.081055	26.670689
285.731201	1319.260254	7031.666992	2843.642822	26.685471
286.106445	1319.776489	7098.621582	2862.225586	26.691303
286.481659	1320.228027	7166.027832	2878.872803	26.662643
286.856781	1320.464722	7232.853516	2892.014404	26.580622
287.231934	1318.894653	7298.947266	2907.070068	26.557882
287.607025	1316.464233	7346.716797	2915.200195	26.511925
287.982056	1316.894409	7365.557617	2923.631104	26.563501
288.357086	1315.732910	7357.599609	2921.416016	26.575943
288.732086	1311.667969	7326.048340	2914.447510	26.649122
289.107025	1310.850708	7290.688965	2905.177246	26.661699
289.481934	1310.571045	7261.221680	2892.293701	26.580669
289.856842	1311.818359	7236.639160	2887.067383	26.587286
290.231659	1311.022583	7237.713867	2883.647461	26.534616
290.606506	1311.689331	7248.296387	2886.809326	26.532328
290.981262	1312.184082	7264.535645	2892.143311	26.543446
291.355988	1309.947144	7285.590820	2898.832275	26.589355
291.730713	1311.646362	7312.411133	2905.026611	26.552954
292.105377	1310.377319	7339.360840	2912.489990	26.573513
292.480011	1310.484985	7357.492188	2913.436035	26.508171
292.854614	1312.549683	7364.181152	2912.145508	26.432472
293.229187	1313.861694	7380.162109	2916.103271	26.412170
293.603729	1313.517578	7405.820801	2925.287109	26.455832
293.978241	1312.506714	7443.051270	2939.761963	26.543406
294.352692	1314.033691	7473.033203	2952.064697	26.595732
294.727081	1313.603638	7494.950195	2960.603271	26.644674
295.101501	1311.560425	7516.952637	2971.572510	26.751123
295.475830	1314.722168	7571.195801	2991.725586	26.804291
295.850189	1317.367676	7669.617676	3029.730469	26.956791
296.224457	1320.572266	7832.454590	3076.639160	26.967117
296.598694	1323.067261	8046.718262	3145.529541	27.105249
296.972931	1324.938354	8301.458984	3221.926025	27.191029
297.347107	1326.938599	8538.541016	3290.773193	27.231598
297.721283	1328.874390	8714.519531	3343.575195	27.278603
298.095367	1331.175781	8806.853516	3370.030273	27.273172
298.469452	1331.648926	8820.446289	3377.794678	27.322756
298.843475	1328.057129	8795.217773	3372.051758	27.373117
299.217529	1329.046387	8756.138672	3364.287598	27.402935
299.591492	1328.444214	8698.583984	3348.543945	27.409246
299.965424	1325.196533	8618.014648	3321.142822	27.368654
300.339325	1323.841553	8485.374023	3283.675781	27.366131
300.713196	1320.120605	8301.758789	3232.120850	27.386126
301.087036	1318.830078	8080.785645	3172.780273	27.417368
301.460815	1318.313965	7865.405762	3118.127930	27.490282
301.834564	1318.830200	7684.758301	3070.982666	27.523912
302.208282	1315.969482	7537.729980	3030.332275	27.554302
302.582001	1314.270386	7416.811035	2994.134277	27.527288
302.955658	1316.012573	7311.185547	2964.324219	27.493980
303.329254	1312.506714	7221.174805	2937.288574	27.498276
303.702820	1310.958130	7142.068359	2914.554688	27.500708
304.076416	1310.807495	7075.995117	2895.756836	27.491722
304.449921	1307.430786	7021.515137	2880.335693	27.526806
304.823395	1309.603027	6969.917480	2865.107910	27.480892
305.196838	1308.527588	6920.384277	2843.965332	27.360603
305.570251	1308.183594	6865.559570	2823.532959	27.267353
305.943604	1304.828369	6805.509766	2800.949219	27.198826
306.316986	1304.312256	6761.246582	2781.699707	27.073578
306.690277	1306.420044	6728.404297	2766.084717	26.921227
307.063507	1305.581177	6712.079590	2761.030273	26.920364
307.436768	1305.989746	6721.134277	2758.341797	26.820190
307.809937	1307.258789	6748.900391	2764.622314	26.781689
308.183136	1308.011597	6803.165527	2777.720459	26.745546
308.556244	1310.054810	6877.411133	2796.561523	26.700405
308.929321	1309.172974	6967.895508	2812.649414	26.569183
309.302399	1310.226929	7060.530762	2831.748535	26.459848
309.675446	1309.043945	7157.489258	2852.310303	26.387634
310.048401	1308.054565	7253.113770	2876.312988	26.379190
310.421356	1309.237427	7348.910645	2898.315918	26.310669
310.794281	1307.839355	7451.095215	2926.598877	26.350189
311.167145	1308.248047	7564.163574	2952.064209	26.276188
311.539978	1312.119507	7661.917480	2977.013672	26.219641
311.912781	1313.324097	7733.152832	2993.317139	26.168814
312.285553	1312.012207	7749.498047	2994.585938	26.137125
312.658295	1312.399292	7722.591797	2981.444580	26.037367
313.031006	1312.227295	7670.456055	2967.916016	26.040094
313.403656	1311.839966	7615.524902	2955.355225	26.072294
313.776276	1313.603638	7565.497070	2939.740479	26.010309
314.148865	1316.313599	7539.773438	2930.986816	25.944944
314.521454	1316.442627	7537.837402	2930.728760	25.947336
314.893982	1316.958862	7538.117188	2927.803467	25.893002
315.266449	1319.109619	7502.563965	2915.651367	25.819578
315.638885	1316.851440	7438.685547	2896.960938	25.811049
316.011322	1317.281494	7355.319824	2869.129639	25.701199
316.383667	1318.270752	7282.773438	2845.986816	25.613468
316.756042	1318.722534	7224.507813	2830.071045	25.590984
317.128326	1319.754883	7172.802734	2814.864746	25.544125
317.500610	1316.872803	7118.904297	2800.131836	25.564478
317.872833	1315.517700	7058.530762	2784.538574	25.579271
318.245087	1312.592651	6980.606445	2759.546143	25.528404
318.617218	1311.775391	6885.283203	2734.532227	25.527134
318.989319	1309.839722	6806.929199	2710.787354	25.485262
319.361420	1307.043823	6756.320801	2696.376953	25.495733
319.733490	1306.484497	6723.543457	2684.977539	25.447258
320.105530	1303.193726	6701.368652	2675.708008	25.425526
320.477509	1298.741699	6679.085938	2666.008057	25.412247
320.849457	1295.622925	6653.877930	2656.544678	25.398600
321.221375	1294.181763	6644.543945	2652.458008	25.386621
321.593231	1295.364746	6637.381348	2646.306641	25.288988
321.965088	1295.988525	6641.230957	2643.187988	25.203712
322.336884	1297.451050	6650.199707	2642.714844	25.132206
322.708618	1298.461914	6680.289551	2638.434570	24.898096
323.080414	1300.526733	6712.143555	2644.220215	24.829798
323.452118	1301.537598	6778.215820	2657.770264	24.763783
323.823761	1302.053833	6891.305176	2678.998779	24.635588
324.195343	1303.752930	7021.881348	2709.454102	24.583239
324.566925	1308.140503	7158.586426	2742.554932	24.518036
324.938507	1310.484863	7291.462891	2769.934570	24.401522
325.310059	1310.893677	7398.078125	2791.593018	24.324863
325.681519	1313.496216	7515.812988	2817.359619	24.246801
326.052948	1312.979980	7614.276855	2837.942871	24.200779
326.424408	1312.786377	7704.826172	2858.870117	24.187641
326.795776	1312.786255	7749.067383	2875.453125	24.279034
327.167084	1309.667603	7759.735840	2874.011963	24.253143
327.538391	1308.957886	7717.257813	2857.967041	24.171921
327.909668	1310.183716	7621.181641	2832.221924	24.117235
328.280884	1310.743042	7526.180176	2806.197021	24.060320
328.652100	1311.216187	7433.007324	2780.538086	24.001503
329.023254	1311.689331	7353.792480	2760.513916	23.978813
329.394348	1310.377441	7294.752930	2745.953125	23.988729
329.765442	1308.334106	7218.937500	2727.176758	24.005039
330.136475	1307.710449	7146.906738	2708.486328	23.989189
330.507538	1307.065308	7068.682617	2688.204102	23.971375
330.878479	1305.237061	7011.600098	2671.578369	23.944170
331.249420	1306.183472	6968.970703	2660.609375	23.918009
331.620331	1307.000732	6957.249512	2657.662842	23.904470
331.991211	1306.032837	6973.101074	2662.200928	23.930681
332.362030	1306.054321	6997.232910	2665.964844	23.895060
332.732819	1303.387329	7032.440918	2674.912109	23.939814
333.103577	1303.451782	7069.478027	2685.881104	23.975426
333.474304	1304.312256	7093.954590	2691.430176	23.958611
333.845001	1305.193970	7117.806641	2697.538574	23.953852
334.215668	1306.075806	7138.390625	2701.474609	23.925299
334.586273	1307.280396	7167.339355	2706.442871	23.876251
334.956818	1307.753540	7190.611328	2709.239014	23.823208
335.327362	1309.108521	7225.347168	2714.916992	23.761862
335.697876	1309.818237	7243.090820	2717.519531	23.725546
336.068329	1310.441895	7256.706055	2719.175537	23.691071
336.438751	1310.312988	7261.888672	2720.853271	23.700283
336.809174	1313.345581	7257.523438	2717.325928	23.619421
337.179504	1315.646973	7261.846680	2714.271729	23.521322
337.549896	1316.485840	7286.837891	2719.992920	23.507946
337.920135	1315.797607	7324.413574	2727.692627	23.497841
338.290375	1315.668457	7372.655762	2740.984619	23.531767
338.660614	1316.980347	7418.403320	2753.351807	23.541582
339.030792	1318.636475	7470.968262	2767.267334	23.546045
339.400940	1318.249390	7504.671875	2780.860596	23.642279
339.771027	1317.582642	7537.944824	2793.442871	23.726274
340.141083	1319.088257	7578.401367	2802.024414	23.691675
340.511139	1319.712036	7612.470215	2810.477295	23.690172
340.881134	1318.528931	7659.206543	2820.693359	23.690912
341.251068	1318.141846	7686.134766	2829.017090	23.726082
341.621002	1319.733276	7708.438965	2831.081787	23.656569
341.990875	1323.131714	7728.937012	2832.974609	23.569916
342.360718	1325.304077	7735.474609	2837.168457	23.585402
342.730560	1324.400757	7744.852051	2833.598389	23.506100
343.100311	1326.293457	7763.907715	2837.190186	23.469824
343.470032	1328.272217	7813.010742	2843.943604	23.372900
343.839752	1330.057373	7885.707520	2853.708496	23.241800
344.209442	1330.982178	7960.534180	2872.485107	23.251993
344.579041	1331.993042	8052.932617	2892.014404	23.211359
344.948639	1334.509521	8144.105957	2915.156738	23.212053
345.318176	1334.853516	8244.891602	2939.439453	23.221087
345.687714	1334.552368	8335.805664	2963.829346	23.271219
346.057190	1333.756592	8412.267578	2981.379883	23.276411
346.426636	1331.971558	8482.621094	2989.381104	23.178448
346.796051	1332.552246	8530.927734	3003.662354	23.215101
347.165405	1330.508911	8543.187500	3004.135742	23.203957
347.534729	1331.261719	8527.056641	2999.769531	23.187262
347.904083	1331.498291	8478.491211	2987.681885	23.173153
348.273315	1331.261597	8410.589844	2968.174072	23.122427
348.642517	1330.874512	8338.624023	2954.688965	23.171696
349.011719	1329.304443	8267.605469	2938.514648	23.193146
349.380890	1329.691528	8203.016602	2922.383789	23.172077
349.749969	1329.261475	8157.311035	2910.919678	23.164127
350.119049	1329.390503	8122.855957	2905.671631	23.202902
350.488098	1330.616577	8108.423828	2904.961914	23.227945
350.857117	1329.541138	8104.294922	2904.079834	23.241268
351.226074	1331.283325	8127.136230	2910.941162	23.244438
351.595001	1330.100464	8150.601563	2921.738037	23.336081
351.963867	1329.304565	8194.585938	2935.524902	23.396278
352.332764	1331.240234	8246.764648	2951.634277	23.431253
352.701538	1330.745605	8309.115234	2966.431885	23.439375
353.070343	1332.810303	8385.533203	2984.649170	23.421293
353.439056	1333.756714	8478.707031	3006.501465	23.411566
353.807770	1335.348267	8577.084961	3029.773193	23.398046
354.176453	1337.864746	8670.364258	3051.410156	23.369186
354.545105	1340.381226	8772.077148	3078.446045	23.387190
354.913666	1344.833374	8899.576172	3112.665039	23.400290
355.282227	1346.661621	9039.055664	3149.207764	23.432837
355.650757	1349.651245	9191.590820	3183.899902	23.390242
356.019226	1352.554688	9350.427734	3228.142090	23.451077
356.387695	1353.350586	9525.352539	3276.406006	23.532244
356.756104	1359.179199	9727.140625	3327.057617	23.516821
357.124451	1362.641968	9968.611328	3390.828857	23.567209
357.492828	1364.685181	10213.868164	3455.115723	23.622868
357.861084	1369.115845	10435.530273	3511.294678	23.627630
358.229401	1372.191528	10625.790039	3565.581299	23.703098
358.597595	1372.944458	10758.193359	3599.047852	23.719173
358.965759	1374.062866	10865.517578	3620.297852	23.665865
359.333923	1377.073975	10958.734375	3646.989258	23.690208
359.702057	1379.246216	11091.374023	3682.456055	23.714783
360.070129	1382.429565	11249.199219	3720.159912	23.692966
360.438141	1384.451172	11443.826172	3768.186768	23.696657
360.806122	1385.612671	11654.196289	3825.570313	23.761383
361.174133	1389.699219	11906.572266	3886.632080	23.742161
361.542053	1394.022339	12192.563477	3962.404785	23.784531
361.909912	1397.442139	12476.599609	4039.167236	23.844097
362.277771	1399.184204	12736.912109	4106.594727	23.879660
362.645599	1402.862061	12921.149414	4157.870117	23.918556
363.013367	1404.152588	13021.571289	4188.583496	23.967724
363.381134	1404.346191	13047.337891	4197.917480	23.993586
363.748810	1400.732788	12986.578125	4187.529297	24.053457
364.116455	1398.990601	12855.375977	4160.063965	24.100735
364.484100	1396.818237	12650.535156	4110.638672	24.114880
364.851715	1394.904053	12370.671875	4036.693604	24.069292
365.219238	1388.322510	11973.160156	3942.896729	24.134277
365.586761	1382.493896	11498.027344	3825.355469	24.149607
365.954224	1378.321289	11039.109375	3707.341309	24.107971
366.321686	1372.342041	10633.854492	3605.221191	24.109228
366.689117	1367.481323	10359.626953	3537.298584	24.130140
367.056458	1363.287231	10173.711914	3496.153809	24.208443
367.423737	1361.437500	10042.621094	3467.031494	24.254688
367.791077	1363.050659	9931.187500	3441.867432	24.262182
368.158295	1360.985840	9845.670898	3423.520996	24.308916
368.525543	1359.157593	9765.295898	3405.454590	24.342890
368.892700	1357.910156	9695.201172	3391.667725	24.393505
369.259827	1353.995728	9637.989258	3373.041992	24.372862
369.626953	1353.866699	9598.737305	3366.051514	24.405291
369.994019	1351.758911	9565.443359	3361.835938	24.472294
370.361053	1352.275146	9548.214844	3356.372803	24.452324
370.728027	1352.189087	9533.718750	3355.061035	24.480410
371.094971	1351.780396	9534.988281	3357.921631	24.515339
371.461914	1352.769775	9558.130859	3359.814209	24.460159
371.828796	1351.737427	9594.414063	3367.664795	24.457193
372.195618	1350.339355	9626.719727	3375.493652	24.469080
372.562408	1351.974121	9658.831055	3386.440674	24.491411
372.929199	1351.586792	9693.179688	3399.453369	24.550066
373.295898	1355.501343	9733.291992	3416.530518	24.601107
373.662598	1356.060547	9780.587891	3429.220459	24.608620
374.029236	1356.576660	9817.689453	3443.803223	24.668463
374.395844	1356.877808	9856.899414	3459.181396	24.732922
374.762421	1355.823853	9897.225586	3472.882080	24.785841
375.128967	1357.114380	9936.629883	3488.819580	24.846451
375.495483	1354.533447	9986.249023	3511.790039	24.992210
375.861908	1355.931519	10070.731445	3540.266602	25.064661
376.228333	1357.974731	10203.887695	3582.916992	25.152206
376.594727	1358.942505	10389.137695	3641.633789	25.278427
376.961090	1361.545044	10614.305664	3712.567871	25.408880
377.327393	1363.480713	10855.839844	3787.200684	25.533379
377.693665	1365.072388	11066.941406	3853.359375	25.647503
378.059906	1364.427246	11233.047852	3908.269287	25.777077
378.426086	1365.932739	11330.974609	3948.123535	25.912495
378.792267	1369.825684	11394.444336	3975.739990	25.995146
379.158386	1371.030151	11416.447266	3993.290527	26.104046
379.524445	1369.976318	11407.844727	3998.474121	26.185818
379.890503	1369.309448	11373.172852	4001.334473	26.310085
380.256531	1369.072998	11302.153320	3993.225830	26.418320
380.622467	1364.900513	11182.784180	3972.986816	26.564650
380.988403	1360.878418	11019.000977	3939.304932	26.696974
381.354279	1356.146606	10836.203125	3905.860352	26.895555
381.720154	1352.726807	10673.344727	3878.222412	27.095795
382.085968	1351.909424	10543.047852	3862.908691	27.319784
382.451752	1349.995239	10486.180664	3860.284912	27.476341
382.817474	1345.026855	10469.597656	3872.996094	27.705076
383.183197	1343.693359	10503.063477	3899.838135	27.907429
383.548859	1345.500000	10561.652344	3940.703125	28.159290
383.914490	1344.467651	10627.725586	3983.289063	28.425594
384.280060	1345.672119	10690.206055	4024.950684	28.672148
384.645599	1349.844727	10754.623047	4065.256348	28.872681
385.011108	1351.522339	10825.126953	4110.810547	29.126064
385.376617	1353.823730	10908.878906	4153.159180	29.296907
385.742035	1354.684082	11003.621094	4202.842773	29.517847
386.107452	1356.727417	11107.333984	4251.967285	29.692921
386.472778	1357.028442	11198.656250	4308.813477	29.992855
386.838135	1359.932007	11293.549805	4368.993652	30.291697
387.203430	1361.437622	11367.687500	4420.160645	30.568127
387.568634	1361.286987	11435.739258	4465.951172	30.817200
387.933838	1362.233276	11474.819336	4506.407715	31.091694
388.299042	1361.329956	11511.188477	4549.166016	31.407688
388.664124	1358.791992	11539.451172	4584.395996	31.683645
389.029236	1358.705933	11556.485352	4618.658203	31.967276
389.394318	1358.598511	11564.163086	4652.468750	32.275238
389.759308	1359.050049	11561.776367	4687.914063	32.627201
390.124298	1359.931885	11585.113281	4732.887207	32.986752
390.489227	1360.405151	11632.730469	4786.614258	33.353783
390.854126	1363.179688	11712.761719	4850.729980	33.697498
391.218964	1363.287231	11838.283203	4939.321777	34.138767
391.583771	1363.588379	11981.677734	5035.354980	34.580292
391.948578	1364.190552	12133.137695	5132.571289	34.993031
392.313354	1365.201538	12250.250000	5214.904297	35.366886
392.678040	1366.061890	12350.002930	5301.775391	35.831520
393.042694	1366.363037	12448.102539	5383.785156	36.252632
393.407349	1366.793091	12559.469727	5479.044434	36.740555
393.771942	1366.276855	12693.099609	5575.077637	37.157825
394.136505	1365.739136	12809.715820	5668.702637	37.600246
394.501007	1365.158325	12885.081055	5741.872559	37.992565
394.865479	1362.362427	12878.089844	5789.663574	38.445694
395.229919	1360.469604	12786.056641	5805.772949	38.906563
395.594360	1360.104004	12648.211914	5802.116699	39.351261
395.958710	1358.168213	12487.438477	5787.813477	39.801762
396.323029	1359.523315	12344.819336	5783.749023	40.274067
396.687286	1358.146729	12222.093750	5780.350098	40.705307
397.051544	1360.039551	12111.457031	5780.199707	41.112347
397.415771	1359.179199	11980.452148	5774.134766	41.567101
397.779938	1358.318726	11827.401367	5760.648926	42.050770
398.144043	1355.673340	11671.833984	5746.604492	42.563618
398.508148	1356.469116	11518.610352	5735.312988	43.089771
398.872192	1356.189575	11394.616211	5734.603027	43.616531
399.236237	1355.350830	11314.026367	5743.399414	44.062572
399.600189	1356.189575	11257.115234	5762.820801	44.507267
399.964111	1356.856323	11216.551758	5794.309082	45.005981
400.328003	1354.425903	11190.957031	5831.840820	45.518230
400.691925	1356.275635	11172.675781	5866.597656	45.946804
401.055695	1353.866699	11166.674805	5910.452637	46.435085
401.419495	1353.544067	11164.954102	5950.694336	46.855145
401.783234	1353.888184	11182.396484	6004.228027	47.314812
402.146942	1355.823853	11181.772461	6047.996582	47.752876
402.510620	1354.533325	11216.336914	6106.713867	48.187744
402.874237	1354.339844	11263.202148	6172.076660	48.620483
403.237823	1355.866943	11339.016602	6257.807617	49.102146
403.601379	1355.888428	11444.148438	6366.293945	49.665703
403.964874	1355.372192	11595.048828	6489.707520	50.141579
404.328369	1356.146484	11759.886719	6622.949707	50.624134
404.691772	1357.630615	11933.800781	6766.020508	51.137508
405.055176	1357.501465	12084.485352	6893.133301	51.604736
405.418549	1358.426392	12229.471680	7014.740234	52.031006
405.781860	1359.200684	12337.485352	7121.742676	52.490364
406.145142	1360.426636	12448.811523	7227.541016	52.912254
406.508362	1362.254761	12518.819336	7314.498047	53.351936
406.871552	1361.136353	12561.362305	7387.625000	53.806850
407.234741	1361.867554	12562.030273	7429.372070	54.173359
407.597870	1360.792236	12520.647461	7452.470703	54.585640
407.960938	1362.340820	12456.339844	7462.623535	54.987228
408.323975	1362.663574	12370.886719	7462.473145	55.411392
408.686981	1360.727783	12293.264648	7462.666992	55.814487
409.049957	1361.416016	12241.559570	7481.551270	56.250500
409.412903	1363.007690	12215.985352	7522.910645	56.757721
409.775787	1364.405762	12229.450195	7582.853516	57.233521
410.138611	1363.459351	12273.197266	7657.551270	57.692417
410.501434	1364.298218	12328.452148	7734.785645	58.102859
410.864227	1366.771606	12373.488281	7805.482422	58.498016
411.226929	1367.717896	12423.409180	7884.460938	58.944691
411.589630	1369.524536	12473.394531	7957.157715	59.327362
411.952271	1370.793457	12497.547852	8014.282715	59.707344
412.314911	1371.116089	12522.303711	8064.934570	60.027851
412.677490	1370.599976	12536.693359	8117.736328	60.425217
413.040009	1373.675659	12560.458984	8163.032715	60.690876
413.402496	1372.557129	12553.318359	8182.712891	60.909588
413.764984	1368.427612	12534.865234	8191.037109	61.099247
414.127380	1367.889893	12502.602539	8194.693359	61.311001
414.489777	1366.900635	12490.407227	8219.062500	61.600735
414.852112	1367.459839	12512.194336	8252.980469	61.782722
415.214386	1366.276855	12548.994141	8296.984375	61.976955
415.576660	1366.018799	12629.650391	8361.573242	62.107452
415.938904	1364.233643	12746.977539	8442.572266	62.184818
416.301086	1366.900635	12896.694336	8543.144531	62.240871
416.663208	1370.793579	13069.619141	8645.457031	62.182854
417.025299	1371.159180	13253.083984	8767.258789	62.246647
417.387390	1373.374512	13469.753906	8909.018555	62.296692
417.749420	1380.472168	13732.582031	9076.350586	62.304165
418.111389	1384.580200	14027.824219	9262.179688	62.306789
418.473328	1387.720337	14356.853516	9470.787109	62.325424
418.835266	1391.333740	14718.684570	9702.342773	62.360546
419.197144	1397.441895	15121.508789	9964.051758	62.420341
419.558960	1401.292114	15548.528320	10236.859375	62.454369
419.920746	1408.045532	16017.491211	10555.716797	62.614773
420.282471	1412.325562	16561.236328	10928.321289	62.816372
420.644226	1418.304810	17156.554688	11344.222656	63.068752
421.005920	1422.219238	17755.876953	11761.113281	63.298096
421.367523	1427.273682	18320.054688	12180.886719	63.658039
421.729126	1429.531860	18822.029297	12559.168945	63.991020
422.090668	1432.177490	19260.212891	12907.535156	64.366920
422.452179	1434.156128	19616.773438	13204.410156	64.733551
422.813660	1435.876831	19942.878906	13499.909180	65.186310
423.175110	1438.242676	20241.583984	13778.522461	65.628120
423.536469	1438.930908	20520.156250	14055.052734	66.117989
423.897858	1439.425659	20782.404297	14323.387695	66.607956
424.259155	1439.124512	20923.882813	14511.109375	67.088257
424.620453	1437.791016	20975.201172	14636.802734	67.557632
424.981689	1438.092163	20959.500000	14730.792969	68.092941
425.342865	1438.715942	20913.107422	14777.616211	68.494568
425.704041	1441.017334	20834.367188	14824.587891	69.011131
426.065186	1441.318359	20749.023438	14841.430664	69.402924
426.426239	1441.447388	20644.773438	14842.893555	69.787109
426.787262	1439.941895	20466.019531	14778.497070	70.106697
427.148254	1437.102783	20225.689453	14668.074219	70.420265
427.509216	1434.994995	19907.519531	14490.527344	70.675407
427.870178	1432.973145	19504.158203	14237.163086	70.854172
428.231049	1430.155762	19086.945313	13974.377930	71.044754
428.591858	1426.585327	18670.699219	13710.709961	71.236626
428.952698	1421.509399	18269.832031	13440.740234	71.337845
429.313446	1416.842163	17885.699219	13189.697266	71.485565
429.674164	1412.239380	17541.742188	12937.709961	71.455833
430.034851	1408.862793	17206.625000	12711.359375	71.544922
430.395477	1408.174561	16918.267578	12504.646484	71.543556
430.756104	1406.539917	16688.412109	12335.313477	71.514626
431.116699	1404.991333	16488.386719	12192.584961	71.519661
431.477203	1406.174316	16316.538086	12089.412109	71.649750
431.837646	1405.937744	16210.290039	12038.072266	71.817627
432.198090	1405.442993	16155.550781	12026.285156	72.005180
432.558502	1405.980713	16141.225586	12052.094727	72.249321
432.918884	1408.196045	16152.410156	12100.811523	72.520752
433.279205	1407.335693	16212.224609	12185.444336	72.801010
433.639465	1406.496948	16264.639648	12289.352539	73.245064
433.999756	1405.593628	16348.177734	12409.386719	73.640495
434.359924	1404.410645	16430.123047	12535.897461	74.082916
434.720093	1404.518188	16499.076172	12670.409180	74.635445
435.080200	1403.464355	16569.537109	12797.843750	75.130714
435.440277	1401.679077	16644.814453	12941.883789	75.707550
435.800354	1398.495972	16696.929688	13062.005859	76.239899
436.160370	1396.302124	16723.988281	13161.372070	76.756989
436.520325	1393.333984	16741.214844	13252.481445	77.268959
436.880249	1391.785278	16744.398438	13342.406250	77.840958
437.240112	1393.635010	16742.140625	13433.965820	78.446274
437.599976	1393.355347	16763.734375	13533.978516	78.987144
437.959808	1397.248413	16810.578125	13650.230469	79.496010
438.319519	1396.538574	16871.531250	13789.343750	80.082787
438.679260	1397.011841	16968.898438	13955.040039	80.645515
439.038940	1398.001221	17101.580078	14146.247070	81.180511
439.398590	1401.313354	17284.636719	14370.575195	81.653328
439.758179	1403.593384	17510.082031	14643.405273	82.201729
440.117767	1407.679810	17808.658203	14965.681641	82.665810
440.477295	1412.691284	18135.470703	15322.565430	83.179199
440.836792	1416.992798	18487.625000	15695.212891	83.642006
441.196198	1416.627075	18806.761719	16043.450195	84.109894
441.555603	1421.165405	19081.398438	16347.465820	84.519279
441.914978	1420.154419	19270.431641	16593.324219	85.002434
442.274323	1422.004272	19408.857422	16787.435547	85.425903
442.633575	1425.854004	19502.654297	16941.841797	85.833710
442.992859	1430.349365	19538.033203	17054.048828	86.282150
443.352051	1429.618042	19510.417969	17093.298828	86.631561
443.711182	1431.231201	19432.322266	17091.945313	86.998688
444.070313	1430.263306	19310.414063	17059.337891	87.410194
444.429382	1427.660767	19152.394531	16999.955078	87.856293
444.788452	1426.649902	19016.162109	16946.873047	88.235664
445.147430	1428.886719	18932.904297	16933.453125	88.577187
445.506409	1427.617676	18915.289063	16976.898438	88.915672
445.865295	1427.380981	18997.214844	17096.160156	89.180008
446.224182	1430.048096	19166.203125	17302.164063	89.490181
446.583038	1428.607056	19404.511719	17554.818359	89.710152
446.941833	1427.725220	19672.609375	17829.476563	89.897812
447.300598	1428.564087	19946.794922	18118.029297	90.124512
447.659302	1429.467529	20195.962891	18384.642578	90.348114
448.018005	1432.112915	20390.330078	18603.273438	90.573708
448.376648	1434.435913	20546.457031	18773.205078	90.721802
448.735229	1433.812256	20616.380859	18868.035156	90.885757
449.093781	1430.155762	20626.341797	18905.351563	91.034729
449.452301	1426.327271	20563.126953	18874.876953	91.177994
449.810791	1426.456299	20426.488281	18788.371094	91.378342
450.169220	1422.499023	20185.425781	18603.855469	91.570770
450.527618	1420.004028	19889.474609	18361.460938	91.726814
450.885956	1415.831421	19574.554688	18114.998047	91.962227
451.244263	1413.293457	19276.238281	17873.376953	92.146530
451.602539	1410.927612	19023.753906	17661.351563	92.264717
451.960785	1408.432617	18834.052734	17505.396484	92.375267
452.318970	1408.174561	18676.830078	17384.671875	92.517311
452.677124	1405.507568	18535.242188	17288.335938	92.720810
453.035248	1404.324585	18393.332031	17173.095703	92.817497
453.393311	1406.131226	18235.076172	17056.585938	92.997246
453.751312	1404.216919	18067.550781	16909.902344	93.052719
454.109314	1406.432251	17921.660156	16784.617188	93.115181
454.467285	1404.862183	17778.740234	16660.753906	93.172134
454.825195	1404.432129	17644.810547	16542.351563	93.211617
455.183044	1402.474854	17489.566406	16416.744141	93.331161
455.540894	1400.797363	17304.662109	16261.369141	93.440002
455.898651	1399.248535	17107.042969	16101.436523	93.598038
456.256378	1395.871948	16915.341797	15929.092773	93.645088
456.614105	1394.301758	16754.355469	15788.878906	93.714371
456.971771	1392.602661	16626.273438	15694.589844	93.884048
457.329407	1389.247437	16578.355469	15661.918945	93.966492
457.686981	1388.881836	16595.927734	15700.418945	94.111221
458.044525	1384.881348	16716.048828	15824.131836	94.182320
458.402008	1386.731079	16913.148438	16035.964844	94.350380
458.759460	1390.258301	17222.691406	16331.743164	94.372635
459.116913	1395.850464	17682.341797	16767.861328	94.385040
459.474274	1400.883301	18285.017578	17345.718750	94.436798
459.831635	1406.840942	18900.771484	17932.480469	94.464989
460.188904	1411.508301	19491.898438	18504.851563	94.540787
460.546173	1418.562866	19993.939453	18983.513672	94.560402
460.903381	1425.251831	20382.978516	19356.398438	94.584900
461.260559	1430.177246	20662.236328	19633.335938	94.650078
461.617706	1433.424927	20856.863281	19835.017578	94.739113
461.974762	1433.037842	20902.890625	19891.906250	94.807434
462.331848	1433.016357	20853.939453	19849.169922	94.826355
462.688843	1426.671509	20652.968750	19672.976563	94.902855
463.045837	1421.208374	20278.253906	19336.095703	95.003677
463.402740	1416.068115	19744.960938	18854.679688	95.142746
463.759613	1410.131836	19186.871094	18331.539063	95.188477
464.116486	1404.905396	18641.621094	17823.220703	95.251991
464.473267	1399.055176	18194.984375	17397.361328	95.251091
464.830048	1397.205444	17837.132813	17074.138672	95.358894
465.186737	1396.474243	17553.250000	16806.921875	95.380714
465.543457	1391.742432	17325.523438	16596.638672	95.425537
465.900085	1392.796265	17206.626953	16486.945313	95.449036
466.256683	1391.161621	17162.019531	16458.232422	95.537422
466.613251	1393.592041	17192.710938	16508.626953	95.670113
466.969757	1393.721069	17282.013672	16597.626953	95.692513
467.326233	1393.893066	17380.392578	16689.937500	95.681015
467.682678	1394.430908	17445.085938	16772.937500	95.812332
468.039093	1393.979248	17487.242188	16822.214844	95.867668
468.395416	1392.366089	17481.046875	16836.861328	95.996033
468.751740	1390.365723	17475.798828	16827.505859	95.969688
469.108032	1387.333130	17453.904297	16817.310547	96.037773
469.464233	1386.924561	17425.257813	16794.595703	96.067780
469.820435	1387.462158	17371.595703	16754.441406	96.138954
470.176575	1388.903198	17264.826172	16654.623047	96.156425
470.532715	1390.709839	17116.185547	16515.681641	96.181328
470.888763	1389.871094	16959.392578	16387.794922	96.328743
471.244751	1389.957153	16821.849609	16260.400391	96.361763
471.600769	1388.838745	16735.945313	16169.292969	96.307755
471.956696	1391.419800	16686.154297	16129.093750	96.357826
472.312592	1395.119141	16715.039063	16157.593750	96.361305
472.668457	1394.172852	16788.876953	16238.356445	96.423965
473.024292	1395.613892	16909.494141	16349.766602	96.392082
473.380035	1399.872437	16996.687500	16447.414063	96.478294
473.735779	1402.711548	17086.396484	16531.275391	96.460518
474.091492	1400.130615	17172.923828	16622.318359	96.509148
474.447113	1398.689453	17280.419922	16723.578125	96.493820
474.802765	1400.238159	17379.853516	16809.220703	96.428993
475.158295	1401.227417	17497.501953	16914.503906	96.378059
475.513824	1401.205811	17608.527344	17017.570313	96.353767
475.869324	1400.495972	17745.513672	17147.285156	96.339996
476.224762	1399.420532	17873.398438	17274.076172	96.362000
476.580170	1401.743408	17999.607422	17398.607422	96.379059
476.935516	1402.668335	18130.783203	17526.904297	96.390038
477.290863	1401.721924	18340.294922	17707.658203	96.265121
477.646118	1399.807739	18551.289063	17912.843750	96.277611
478.001373	1403.163208	18806.695313	18145.820313	96.202637
478.356537	1404.561279	19087.570313	18398.839844	96.105125
478.711700	1408.927368	19371.455078	18658.138672	96.028862
479.066833	1412.863281	19646.175781	18928.408203	96.063431
479.421875	1416.003418	19939.740234	19209.304688	96.056763
479.776917	1418.713501	20251.736328	19496.435547	95.989487
480.131897	1422.756958	20583.023438	19809.593750	95.963364
480.486847	1425.187378	20960.789063	20154.410156	95.872261
480.841766	1427.617798	21395.488281	20576.937500	95.900658
481.196594	1431.403198	21904.089844	21062.673828	95.890053
481.551453	1438.608521	22567.785156	21677.570313	95.786797
481.906219	1446.028809	23387.111328	22458.869141	95.769386
482.260986	1455.320190	24480.345703	23523.451172	95.844109
482.615662	1465.364380	26038.882813	25013.466797	95.827148
482.970306	1480.312500	28242.232422	27124.650391	95.823982
483.324951	1502.057129	31073.486328	29864.474609	95.911552
483.679504	1528.103394	34178.042969	32915.046875	96.131706
484.034027	1552.192261	37240.316406	35909.519531	96.271034
484.388519	1577.485840	40007.261719	38612.179688	96.369789
484.742981	1599.682007	42335.035156	40836.093750	96.320297
485.097351	1615.727051	44198.640625	42604.160156	96.255585
485.451721	1625.018677	45581.304688	43911.273438	96.200699
485.806030	1633.750732	46583.941406	44833.839844	96.106575
486.160309	1640.482788	47246.304688	45427.671875	96.012276
486.514557	1645.494263	47545.160156	45689.726563	95.957634
486.868744	1646.569580	47432.246094	45543.296875	95.874367
487.222931	1643.171387	46820.234375	44891.777344	95.731339
487.577026	1636.890991	45926.082031	43936.515625	95.507782
487.931122	1628.933105	44990.953125	42934.542969	95.257576
488.285126	1619.964111	44104.308594	41976.878906	94.992439
488.639099	1612.952637	43301.371094	41123.394531	94.775581
488.993042	1607.553955	42603.714844	40407.718750	94.643410
489.346954	1604.542969	42024.195313	39803.214844	94.505196
489.700836	1601.617676	41487.574219	39264.628906	94.426750
490.054626	1597.423828	40928.410156	38693.808594	94.318474
490.408417	1590.670044	40378.378906	38112.703125	94.158775
490.762146	1584.217896	39816.289063	37531.960938	94.025101
491.115814	1583.056274	39386.949219	37081.089844	93.900475
491.469513	1578.711670	39061.570313	36709.835938	93.725838
491.823090	1576.281250	38661.800781	36270.835938	93.552834
492.176666	1572.173340	38210.628906	35795.703125	93.408768
492.530182	1567.678101	37734.078125	35329.324219	93.350861
492.883698	1562.967896	37229.519531	34818.230469	93.239357
493.237091	1558.687622	36680.738281	34290.589844	93.194733
493.590515	1550.321045	36093.078125	33712.734375	93.108994
493.943878	1543.266479	35411.636719	33039.921875	92.997261
494.297150	1537.846558	34507.351563	32164.414063	92.893631
494.650452	1529.049683	33330.281250	31031.931641	92.772766
495.003662	1512.875488	31807.943359	29560.287109	92.580788
495.356873	1500.314941	30131.712891	27955.269531	92.398407
495.710022	1487.066040	28584.187500	26474.376953	92.213898
496.063110	1476.828247	27306.437500	25250.869141	92.041817
496.416168	1468.074341	26367.935547	24345.210938	91.876564
496.769165	1463.084473	25714.408203	23706.312500	91.719643
497.122162	1457.449463	25311.005859	23279.142578	91.481926
497.475098	1456.632202	25029.080078	22970.847656	91.268486
497.828003	1456.223511	24893.019531	22810.570313	91.114616
498.180847	1454.029785	24823.205078	22716.126953	90.983513
498.533661	1454.416870	24769.218750	22626.568359	90.809914
498.886444	1453.621094	24713.750000	22544.578125	90.674294
499.239136	1451.964966	24632.236328	22426.521484	90.484520
499.591827	1449.900269	24482.648438	22249.617188	90.304970
499.944427	1449.039795	24238.423828	21990.187500	90.134720
500.297089	1446.007202	23928.687500	21658.939453	89.904457
500.649628	1444.630615	23578.921875	21291.455078	89.665504
501.002136	1440.371948	23203.154297	20909.429688	89.460335
501.354584	1437.532837	22852.552734	20565.710938	89.321320
501.707001	1434.156250	22491.947266	20196.095703	89.097374
502.059387	1432.005371	22181.478516	19881.626953	88.916100
502.411682	1429.747070	21899.015625	19595.548828	88.746696
502.764038	1429.531982	21673.394531	19351.150391	88.528648
503.116302	1429.575073	21490.425781	19154.007813	88.353348
503.468475	1428.370605	21362.968750	19012.742188	88.210312
503.820709	1427.445679	21297.326172	18917.224609	88.021561
504.172852	1427.768433	21260.976563	18836.914063	87.777756
504.524902	1425.101440	21239.255859	18777.875000	87.577667
504.876953	1428.177124	21248.654297	18735.310547	87.319458
505.228912	1427.918945	21261.386719	18705.285156	87.112183
505.580872	1427.553345	21280.679688	18678.873047	86.894730
505.932770	1426.391968	21267.861328	18624.736328	86.678787
506.284698	1425.209106	21266.160156	18561.052734	86.366043
506.636505	1425.660645	21272.806641	18518.746094	86.123642
506.988342	1423.789551	21269.794922	18463.341797	85.858849
507.340088	1424.671387	21276.398438	18406.152344	85.541580
507.691772	1424.456177	21279.777344	18359.800781	85.293732
508.043396	1423.681763	21298.380859	18337.884766	85.104195
508.395050	1425.337769	21345.074219	18338.466797	84.906387
508.746582	1426.262695	21429.212891	18368.427734	84.698334
509.098114	1426.929565	21563.166016	18420.476563	84.392868
509.449646	1429.446045	21709.593750	18481.990234	84.084915
509.801086	1431.080688	21892.970703	18565.611328	83.738747
510.152557	1433.403442	22072.626953	18666.462891	83.496643
510.503906	1433.640137	22255.166016	18767.357422	83.249023
510.855194	1437.210449	22443.490234	18857.947266	82.931091
511.206482	1438.801880	22627.857422	18952.347656	82.653732
511.557709	1440.243042	22821.171875	19055.199219	82.386299
511.908844	1445.340332	23011.128906	19151.707031	82.103958
512.260010	1446.136230	23173.730469	19213.714844	81.774254
512.611206	1446.588013	23288.087891	19241.910156	81.474815
512.962219	1449.663574	23368.722656	19236.449219	81.147575
513.313232	1450.394897	23425.783203	19229.781250	80.905907
513.664246	1450.932617	23455.679688	19188.593750	80.608337
514.015137	1450.760620	23457.228516	19120.111328	80.291626
514.366028	1453.728638	23439.097656	19036.380859	79.974335
514.716919	1452.115356	23387.007813	18932.689453	79.693001
515.067688	1450.416138	23307.533203	18806.480469	79.406921
515.418396	1449.555786	23222.382813	18657.152344	79.032440
515.769104	1448.136353	23144.609375	18520.359375	78.686630
516.119812	1450.093506	23090.453125	18407.939453	78.362129
516.470459	1450.050537	23097.982422	18346.748047	78.052246
516.821106	1450.824829	23162.376953	18331.476563	77.749634
517.171631	1453.126221	23358.894531	18403.226563	77.377335
517.522095	1457.212769	23642.285156	18547.695313	77.035957
517.872559	1461.062622	24070.144531	18799.189453	76.686562
518.222961	1464.977173	24575.886719	19099.593750	76.304298
518.573364	1469.493896	25124.449219	19427.677734	75.917213
518.923645	1476.312012	25645.048828	19746.640625	75.594887
519.273987	1481.818115	26105.107422	20017.298828	75.276215
519.624207	1483.925903	26452.355469	20189.898438	74.918495
519.974487	1483.646362	26733.636719	20319.439453	74.597229
520.324646	1484.850708	26895.742188	20352.242188	74.249229
520.674744	1483.000977	26977.429688	20311.914063	73.855011
521.024780	1481.710449	26911.783203	20172.283203	73.497910
521.374878	1480.419922	26728.537109	19953.439453	73.165932
521.724792	1477.086060	26432.779297	19636.517578	72.766685
522.074707	1472.505005	26056.068359	19271.505859	72.402039
522.424744	1468.870117	25661.351563	18898.382813	72.045158
522.774536	1464.095459	25332.281250	18549.501953	71.582344
523.124329	1462.159668	25042.888672	18251.464844	71.199265
523.474182	1458.589478	24903.343750	18055.054688	70.789673
523.823914	1461.815674	24869.898438	17924.478516	70.328964
524.173523	1463.321167	24982.623047	17903.294922	69.899925
524.523132	1467.084961	25229.251953	17990.142578	69.535149
524.872803	1469.020630	25632.398438	18179.716797	69.157120
525.222290	1474.118042	26245.767578	18498.507813	68.725296
525.571777	1480.118896	26965.470703	18890.621094	68.315720
525.921326	1488.958740	27765.914063	19332.890625	67.907150
526.270752	1495.389526	28603.373047	19794.517578	67.504570
526.620178	1505.949951	29496.150391	20301.613281	67.150871
526.969482	1513.800415	30569.894531	20910.312500	66.755402
527.318787	1527.286011	31845.470703	21654.597656	66.386932
527.668030	1539.803589	33489.312500	22666.314453	66.124680
528.017212	1559.289917	35522.765625	23980.500000	66.015656
528.366394	1579.442871	37770.765625	25471.244141	66.015274
528.715515	1603.768677	39934.906250	26911.636719	66.024307
529.064636	1620.781616	41741.433594	28057.392578	65.892776
529.413635	1635.256348	43115.664063	28874.781250	65.668419
529.762695	1642.827271	44061.628906	29375.400391	65.378021
530.111633	1649.752686	44697.285156	29665.761719	65.081573
530.460510	1649.731201	44978.562500	29722.994141	64.791183
530.809387	1647.408325	44862.527344	29515.507813	64.486923
531.158142	1642.504639	44333.128906	29042.179688	64.181953
531.506958	1635.901611	43292.691406	28206.912109	63.785545
531.855652	1623.814087	41803.566406	27027.476563	63.225033
532.204407	1609.554199	40108.777344	25671.675781	62.500278
532.552979	1591.637939	38622.894531	24418.189453	61.641304
532.901611	1580.238647	37507.550781	23473.791016	60.938465
533.250183	1573.549683	36804.671875	22830.849609	60.336716
533.598755	1566.581299	36351.496094	22378.492188	59.830276
533.947205	1563.010864	35978.953125	21993.154297	59.362438
534.295593	1561.505371	35663.878906	21659.671875	58.934799
534.643982	1561.634399	35411.527344	21382.691406	58.555740
534.992249	1567.914795	35183.628906	21147.136719	58.244255
535.340576	1561.526855	34984.875000	20929.324219	57.946911
535.688843	1556.752075	34779.281250	20699.662109	57.620270
536.037048	1552.041748	34511.781250	20421.025391	57.248589
536.385315	1550.880371	34046.386719	20035.148438	56.882534
536.733398	1545.288208	33382.691406	19519.859375	56.457401
537.081421	1536.878540	32527.445313	18905.482422	56.044807
537.429443	1531.695190	31672.181641	18297.148438	55.624363
537.777466	1528.555054	30902.644531	17758.201172	55.251572
538.125427	1524.640625	30244.908203	17292.164063	54.900337
538.473267	1519.865723	29722.843750	16909.126953	54.566086
538.821167	1509.907471	29287.111328	16562.675781	54.191090
539.169006	1508.853638	28941.242188	16280.125000	53.846100
539.516846	1508.401978	28654.732422	16028.609375	53.488655
539.864502	1509.240723	28495.763672	15832.047852	53.073921
540.212219	1507.928833	28504.111328	15719.625000	52.643356
540.559875	1511.520630	28838.193359	15781.094727	52.218487
540.907410	1519.500122	29597.880859	16059.043945	51.781990
541.254944	1530.125000	30617.769531	16478.814453	51.391888
541.602478	1536.168823	31697.882813	16934.978516	51.054157
541.949951	1542.857910	32720.099609	17347.246094	50.692066
542.297363	1549.718872	33602.207031	17683.826172	50.336521
542.644714	1555.117310	34395.015625	17972.441406	49.992008
542.992126	1562.107544	35014.703125	18168.337891	49.641087
543.339355	1564.710083	35429.875000	18273.833984	49.340153
543.686646	1564.580933	35497.582031	18213.892578	49.065254
544.033813	1562.494873	35207.761719	17965.861328	48.753864
544.380920	1554.149536	34458.527344	17492.642578	48.438820
544.728027	1542.900757	33316.277344	16818.664063	48.077244
545.075134	1530.189575	31969.875000	16056.312500	47.721001
545.422180	1519.500000	30666.382813	15306.110352	47.300461
545.769165	1509.111694	29513.033203	14648.116211	46.918446
546.116150	1500.379395	28531.037109	14082.217773	46.546547
546.463013	1491.259888	27665.556641	13569.186523	46.144226
546.809875	1481.581543	26966.525391	13150.360352	45.786953
547.156677	1477.903564	26331.867188	12754.891602	45.372997
547.503418	1472.526611	25801.994141	12421.905273	45.004601
547.850098	1467.601318	25317.220703	12121.437500	44.670883
548.196777	1466.676270	24898.181641	11845.746094	44.295361
548.543396	1465.321411	24474.513672	11579.735352	43.958145
548.890015	1459.385132	24032.888672	11303.420898	43.608810
549.236633	1453.341309	23521.126953	11006.717773	43.291054
549.583069	1448.588013	22973.126953	10691.559570	42.941555
549.929504	1444.006836	22375.375000	10361.045898	42.601322
550.275879	1438.049072	21767.470703	10039.586914	42.310787
550.622253	1435.747925	21120.251953	9695.523438	41.960800
550.968567	1428.047974	20528.802734	9382.862305	41.646599
551.314819	1424.520630	20002.304688	9100.375000	41.317387
551.661072	1421.982788	19598.126953	8866.819336	40.959381
552.007263	1416.218628	19304.757813	8681.376953	40.613480
552.353394	1411.852417	19120.906250	8544.908203	40.279144
552.699524	1410.153442	19001.708984	8439.820313	39.960464
553.045593	1407.249756	18950.607422	8362.089844	39.643723
553.391602	1407.701294	18928.796875	8299.114258	39.332088
553.737549	1407.895020	18905.654297	8240.204102	39.046764
554.083435	1408.690796	18871.564453	8176.519043	38.755524
554.429321	1405.744263	18837.603516	8106.789551	38.441368
554.775146	1404.711792	18766.435547	8025.080078	38.131973
555.120972	1401.593018	18699.888672	7943.844238	37.820206
555.466675	1400.001465	18572.431641	7852.026367	37.571999
555.812439	1400.861816	18412.195313	7754.724609	37.350761
556.158081	1400.431641	18199.246094	7631.784668	37.094006
556.503662	1400.495972	17978.443359	7502.801270	36.809776
556.849182	1400.818848	17754.201172	7372.548340	36.516785
557.194702	1397.764648	17537.119141	7251.113770	36.267555
557.540161	1393.140381	17350.515625	7138.045410	36.001568
557.885620	1390.774414	17176.365234	7036.872070	35.767414
558.231018	1387.849243	17019.054688	6948.752930	35.575657
558.576355	1386.472778	16895.041016	6866.291992	35.334141
558.921692	1386.365356	16771.951172	6788.368652	35.110806
559.266968	1382.923950	16670.603516	6715.671387	34.882648
559.612183	1381.353882	16585.216797	6648.781250	34.645321
559.957336	1378.815918	16526.220703	6593.698730	34.427567
560.302429	1376.493164	16485.611328	6541.843262	34.186974
560.647522	1377.073975	16465.630859	6495.772949	33.924381
560.992554	1376.149170	16452.361328	6455.552734	33.691509
561.337524	1375.396362	16454.466797	6423.118652	33.475021
561.682434	1376.772827	16478.041016	6391.802734	33.209328
562.027344	1379.590332	16486.343750	6356.186035	32.942852
562.372253	1380.256958	16492.281250	6328.332520	32.742641
562.717102	1381.052856	16496.431641	6306.953125	32.588665
563.061829	1383.289551	16506.345703	6276.584473	32.356522
563.406494	1382.923950	16506.863281	6243.504395	32.138325
563.751160	1383.010132	16487.873047	6210.404297	31.959204
564.095825	1383.805908	16480.019531	6182.636230	31.788301
564.440369	1381.052856	16470.945313	6157.429199	31.652819
564.784973	1381.547485	16486.128906	6136.222168	31.478363
565.129456	1383.504761	16545.621094	6133.232910	31.326286
565.473877	1381.934692	16631.501953	6139.212402	31.196150
565.818298	1379.418335	16780.574219	6167.947266	31.092009
566.162659	1381.225098	16958.230469	6201.801270	30.946745
566.507019	1383.117676	17142.789063	6230.793457	30.760004
566.851196	1382.623047	17304.982422	6269.314453	30.690750
567.195435	1384.924316	17465.066406	6295.812500	30.540079
567.539612	1386.128784	17583.642578	6310.781738	30.403757
567.883789	1387.870972	17669.867188	6316.933105	30.273083
568.227844	1390.107666	17720.433594	6309.706543	30.125538
568.571960	1392.796143	17746.607422	6300.156738	30.007441
568.915955	1391.957397	17702.988281	6264.281250	29.871342
569.259888	1392.301514	17641.583984	6231.610840	29.781683
569.603821	1394.624390	17538.859375	6183.390137	29.662388
569.947632	1393.140259	17414.093750	6126.437012	29.544415
570.291504	1390.537842	17301.820313	6075.742188	29.445799
570.635193	1388.817261	17230.070313	6027.349609	29.281347
570.979004	1387.720337	17189.140625	6006.378418	29.229387
571.322632	1388.387207	17251.921875	6006.873535	29.113853
571.666321	1386.881348	17348.537109	6019.068848	29.020720
572.009949	1388.752686	17484.488281	6050.620605	28.963375
572.353455	1388.688110	17614.806641	6073.742188	28.873537
572.696960	1392.903809	17731.423828	6096.734375	28.789822
573.040405	1395.269653	17836.578125	6107.187500	28.659019
573.383850	1396.302246	17900.994141	6102.390625	28.513641
573.727173	1397.678589	17957.580078	6110.993652	28.462215
574.070557	1398.667969	17983.669922	6103.551758	28.368303
574.413879	1400.474731	18000.898438	6095.873047	28.284811
574.757019	1398.560425	18007.070313	6076.429688	28.165497
575.100281	1398.409912	17948.935547	6049.565918	28.102772
575.443420	1397.850586	17855.351563	6007.239258	28.007830
575.786499	1394.968628	17718.580078	5950.909180	27.910126
576.129517	1395.011597	17557.830078	5894.858887	27.840733
576.472534	1395.269653	17409.726563	5837.088379	27.736307
576.815491	1393.376953	17219.445313	5771.854980	27.666241
577.158447	1392.839355	17037.873047	5716.084961	27.633343
577.501343	1389.634644	16846.281250	5644.828125	27.529861
577.844116	1385.655518	16634.621094	5580.153809	27.506771
578.187012	1383.182129	16399.818359	5510.618164	27.485756
578.529724	1380.321533	16122.384766	5428.070313	27.457138
578.872375	1377.310425	15831.832031	5339.414063	27.410824
579.215027	1374.062622	15551.066406	5251.726074	27.351784
579.557617	1371.159058	15267.546875	5165.801270	27.306681
579.900146	1368.104980	15013.774414	5083.016602	27.224106
580.242676	1364.362549	14763.677734	5009.997070	27.207617
580.585144	1363.910889	14546.577148	4945.107422	27.165951
580.927612	1360.620117	14349.434570	4885.250488	27.135889
581.269958	1358.254272	14169.499023	4833.308105	27.125027
581.612305	1359.136108	14031.352539	4780.742676	27.000851
581.954590	1358.017700	13892.000977	4728.585938	26.891438
582.296814	1359.329712	13789.235352	4687.483887	26.775379
582.639038	1358.168335	13691.159180	4651.974609	26.707277
582.981140	1360.641724	13596.156250	4626.315430	26.690123
583.323242	1364.212036	13520.319336	4605.925781	26.667368
583.665283	1361.824707	13440.610352	4585.880371	26.691887
584.007324	1359.243652	13378.174805	4561.103027	26.640133
584.349304	1357.071411	13312.359375	4538.433105	26.610498
584.691284	1355.264771	13251.771484	4517.269043	26.579268
585.033142	1354.447388	13186.343750	4498.148926	26.569719
585.374939	1354.253906	13123.582031	4479.414551	26.553432
585.716736	1352.533203	13080.458984	4468.704102	26.570520
586.058411	1353.329102	13023.613281	4456.315430	26.588781
586.400085	1354.124878	12978.125000	4440.313477	26.550142
586.741760	1351.285889	12935.324219	4427.193359	26.552980
587.083374	1348.253174	12922.503906	4417.665527	26.519318
587.424988	1348.167114	12903.749023	4405.470703	26.457375
587.766541	1346.360352	12895.706055	4398.351563	26.425663
588.107971	1346.166748	12910.008789	4397.211426	26.384352
588.449341	1346.747559	12925.581055	4400.587891	26.374334
588.790710	1346.941162	12962.487305	4403.986328	26.318567
589.132080	1345.693604	12993.931641	4408.610352	26.295107
589.473267	1348.984375	13041.616211	4419.386230	26.259289
589.814514	1347.392700	13090.913086	4426.419434	26.218943
590.155762	1346.424927	13151.329102	4441.883301	26.221802
590.496948	1348.704834	13191.547852	4447.690430	26.167582
590.838013	1348.102661	13204.711914	4446.185059	26.129583
591.179077	1349.005981	13229.359375	4447.754883	26.082970
591.520081	1350.704956	13229.360352	4445.668945	26.054834
591.861023	1352.339600	13208.475586	4435.990234	26.008902
592.201965	1351.930908	13188.343750	4417.472168	25.899242
592.542847	1353.264526	13146.706055	4401.147949	25.843884
592.883606	1353.716187	13099.450195	4386.564941	25.820852
593.224365	1352.468628	13047.250000	4365.917480	25.767466
593.565125	1352.511597	13016.602539	4354.259766	25.734951
593.905823	1353.823730	12999.008789	4341.569824	25.656492
594.246521	1353.350464	12995.803711	4339.698730	25.650507
594.587097	1354.942139	13030.777344	4342.516113	25.587669
594.927612	1354.017334	13055.768555	4345.205078	25.561882
595.268127	1354.985229	13121.110352	4358.367676	25.525671
595.608582	1350.597534	13227.984375	4378.865234	25.496077
595.948975	1350.877075	13347.805664	4414.332031	25.535328
596.289307	1352.597656	13530.000000	4462.058594	25.534681
596.629700	1353.845093	13753.403320	4515.807617	25.500605
596.969971	1355.157104	13974.957031	4569.297852	25.469030
597.310242	1355.028198	14161.775391	4614.228027	25.449083
597.650391	1355.286255	14280.758789	4644.102051	25.444454
597.990540	1353.350464	14364.662109	4655.200195	25.376762
598.330627	1354.425903	14370.918945	4653.221191	25.343197
598.670654	1356.727295	14358.681641	4647.328613	25.308514
599.010620	1355.845459	14279.640625	4627.347656	25.313789
599.350525	1358.834961	14147.237305	4594.483887	25.301432
599.690491	1358.985474	13981.238281	4547.294922	25.259434
600.030334	1356.426147	13756.113281	4480.232910	25.192623
600.370178	1354.576416	13481.950195	4406.266602	25.163652
600.710022	1352.210449	13190.322266	4327.869629	25.136267
601.049683	1351.221191	12926.418945	4256.119141	25.095882
601.389343	1349.005859	12712.930664	4202.004883	25.105755
601.728943	1349.220947	12547.619141	4159.999512	25.099827
602.068542	1346.145386	12447.219727	4135.201172	25.124197
602.408081	1343.714966	12407.515625	4123.521973	25.125246
602.747498	1347.392822	12457.952148	4128.404297	25.030346
603.087036	1349.758667	12558.715820	4151.159180	24.992516
603.426453	1349.027344	12710.046875	4185.744141	24.968857
603.765869	1350.661987	12902.652344	4233.255859	24.953222
604.105103	1350.833984	13132.744141	4290.058594	24.946928
604.444336	1352.103027	13408.628906	4362.260742	24.967041
604.783569	1354.791504	13683.350586	4434.807617	24.982775
605.122681	1358.039185	13923.790039	4486.082520	24.893406
605.461792	1360.362183	14122.050781	4538.498047	24.903725
605.800842	1361.910645	14273.315430	4573.254883	24.872152
606.139954	1362.641846	14346.141602	4589.041992	24.850002
606.478943	1359.931763	14330.636719	4585.084473	24.864901
606.817932	1356.813232	14249.227539	4564.673828	24.881769
607.156799	1358.340332	14120.008789	4525.937500	24.821184
607.495605	1357.071411	13942.028320	4481.308105	24.825169
607.834412	1356.512207	13730.906250	4422.311523	24.775349
608.173157	1356.963867	13487.928711	4357.421875	24.733877
608.511841	1357.523193	13275.150391	4299.758301	24.688095
608.850464	1356.813354	13123.109375	4266.077148	24.725399
609.189148	1357.222046	13038.905273	4236.912109	24.651327
609.527710	1357.178955	12987.802734	4221.404297	24.626583
609.866211	1356.619629	12966.853516	4215.253418	24.621672
610.204712	1356.576660	12970.832031	4216.414551	24.623514
610.543091	1358.921021	12985.652344	4217.511719	24.586367
610.881409	1359.200684	12981.887695	4218.458008	24.600657
611.219788	1358.555542	12962.636719	4211.618652	24.586721
611.558044	1359.222290	12924.590820	4202.735840	24.586452
611.896301	1357.071411	12848.300781	4180.238281	24.568014
612.234436	1355.092651	12720.778320	4147.072754	24.564995
612.572693	1350.468384	12538.434570	4096.055664	24.540541
612.910767	1346.295776	12311.265625	4037.962646	24.547874
613.248840	1345.951660	12067.795898	3974.234375	24.513346
613.586792	1344.962402	11823.615234	3913.302246	24.510212
613.924805	1343.112671	11590.983398	3852.929443	24.491106
614.262695	1339.284180	11367.793945	3795.287598	24.490213
614.600525	1335.563354	11181.536133	3748.829834	24.510189
614.938293	1333.627441	11017.816406	3710.352295	24.542320
615.276123	1329.906738	10869.152344	3672.928223	24.561914
615.613892	1329.584106	10751.783203	3642.860107	24.551336
615.951538	1328.035522	10640.694336	3618.470215	24.594851
616.289185	1328.014038	10566.943359	3594.982910	24.537136
616.626770	1327.411743	10496.353516	3576.292236	24.527153
616.964294	1326.013672	10445.938477	3564.957275	24.550022
617.301819	1323.604736	10407.267578	3554.354004	24.557816
617.639221	1323.153076	10378.189453	3543.965820	24.525719
617.976624	1321.325073	10362.853516	3536.975830	24.505270
618.313965	1324.164185	10346.486328	3529.103760	24.438713
618.651306	1327.497803	10337.819336	3522.199951	24.357645
618.988525	1329.605591	10326.570313	3518.306885	24.327106
619.325684	1329.433472	10320.224609	3516.177490	24.322044
619.662964	1331.111206	10312.611328	3509.445557	24.253571
620.000000	1331.605957	10289.296875	3505.659912	24.270248
620.337097	1329.842285	10270.563477	3501.939697	24.294434
620.674133	1327.670044	10244.667969	3494.691162	24.302135
621.011047	1330.035889	10211.373047	3488.733398	24.305998
621.347961	1329.648682	10182.379883	3481.915527	24.311895
621.684875	1331.390747	10146.871094	3473.183350	24.295811
622.021729	1329.863770	10114.371094	3467.354004	24.332499
622.358521	1329.132324	10068.881836	3456.535889	24.341698
622.695313	1327.325684	10045.352539	3452.212646	24.373484
623.031982	1326.551514	10015.541992	3441.888916	24.345032
623.368652	1324.529785	9991.561523	3432.920166	24.326557
623.705261	1323.712402	9977.149414	3428.058838	24.318041
624.041748	1326.443970	9965.019531	3424.187500	24.283445
624.378296	1330.057373	9964.589844	3421.757080	24.224817
624.714722	1329.777710	9987.903320	3419.455566	24.135450
625.051147	1331.756470	10010.014648	3425.693115	24.128536
625.387512	1333.520142	10059.138672	3435.092041	24.085075
625.723877	1334.358887	10114.349609	3450.707031	24.104219
626.060120	1332.380249	10206.467773	3476.409180	24.160555
626.396301	1335.004150	10316.202148	3500.283447	24.109024
626.732483	1338.079956	10427.527344	3528.802979	24.101830
627.068604	1340.488770	10542.659180	3562.764160	24.149471
627.404724	1345.156006	10649.726563	3588.422852	24.109301
627.740662	1346.575562	10744.706055	3614.663086	24.133389
628.076721	1345.392578	10811.510742	3629.482178	24.129105
628.412720	1344.360107	10847.579102	3641.720215	24.174547
628.748596	1344.058960	10864.636719	3643.096680	24.148088
629.084473	1344.790161	10857.860352	3644.128906	24.170313
629.420227	1344.058960	10822.523438	3633.095215	24.149862
629.755981	1344.381592	10759.699219	3612.447510	24.089108
630.091675	1345.285034	10655.600586	3588.057617	24.089113
630.427307	1343.714966	10541.219727	3561.086182	24.108398
630.762939	1340.768311	10419.979492	3528.049805	24.091097
631.098450	1338.208862	10297.727539	3496.583496	24.090296
631.434021	1338.208862	10185.499023	3465.332275	24.042656
631.769470	1335.197754	10085.313477	3444.642090	24.107618
632.104980	1333.240479	9990.163086	3420.896973	24.115458
632.440308	1331.627441	9907.851563	3400.270996	24.120678
632.775635	1330.315430	9827.433594	3383.021240	24.157671
633.110901	1330.401489	9767.102539	3367.772461	24.148905
633.446106	1330.788574	9724.925781	3359.405518	24.167070
633.781250	1328.100098	9693.135742	3354.329590	24.222607
634.116394	1329.304565	9672.036133	3348.006104	24.197130
634.451538	1330.186401	9660.164063	3343.166992	24.165499
634.786560	1329.261597	9636.849609	3341.704102	24.224150
635.121582	1326.723511	9609.641602	3334.327148	24.237879
635.456543	1329.820679	9574.928711	3324.885254	24.196947
635.791443	1334.122437	9539.719727	3314.754639	24.137573
636.126221	1333.455688	9498.402344	3310.195313	24.210073
636.461060	1330.294067	9459.751953	3297.570068	24.199350
636.795776	1328.336792	9411.875000	3284.084229	24.194201
637.130493	1327.261353	9340.318359	3264.468750	24.175634
637.465210	1329.089478	9269.083984	3243.197510	24.107170
637.799805	1327.562378	9190.750977	3222.463867	24.098385
638.134399	1325.196655	9101.235352	3196.998291	24.071404
638.468933	1324.400757	9013.999023	3173.920166	24.052225
638.803345	1324.099731	8930.870117	3153.315674	24.047209
639.137756	1322.357422	8856.818359	3134.065674	24.045626
639.472168	1320.937988	8790.487305	3119.074463	24.072891
639.806519	1319.582886	8721.060547	3095.351318	23.992081
640.140747	1319.797974	8648.619141	3079.736572	24.013939
640.474976	1320.142090	8578.417969	3064.142822	24.027756
640.809204	1321.066895	8510.150391	3045.345215	23.984674
641.143372	1321.023926	8444.959961	3030.870117	24.001425
641.477478	1320.658325	8379.188477	3017.513428	24.039780
641.811462	1321.798340	8318.385742	3007.706055	24.096144
642.145447	1322.206909	8273.305664	2997.274170	24.097878
642.479370	1321.647583	8229.859375	2987.036865	24.107386
642.813293	1321.346558	8179.572266	2974.863037	24.109976
643.147095	1318.873169	8133.115234	2963.851074	24.140291
643.480957	1319.862427	8095.455078	2955.118896	24.134516
643.814758	1322.593872	8059.644043	2945.160400	24.084229
644.148438	1322.809082	8031.532715	2934.836914	24.028830
644.482117	1322.593872	8010.153320	2929.803711	24.032831
644.815735	1320.400146	7981.741699	2922.512695	24.050898
645.149292	1319.002075	7963.890625	2919.974854	24.093298
645.482788	1318.636475	7946.726563	2916.081787	24.101141
645.816223	1318.098755	7929.542480	2911.586426	24.101961
646.149658	1321.884277	7921.261230	2911.070557	24.080853
646.483032	1322.830566	7925.670410	2913.931152	24.097216
646.816345	1325.002930	7925.347168	2916.533447	24.112841
647.149658	1325.712769	7925.153320	2924.147461	24.220760
647.482849	1323.067261	7931.089355	2923.867920	24.225111
647.816101	1323.690918	7933.498535	2927.502686	24.264122
648.149231	1325.583618	7934.251465	2932.879639	24.321028
648.482239	1325.562134	7940.402832	2933.567627	24.309057
648.815247	1325.282715	7940.918457	2927.480713	24.218353
649.148254	1326.250366	7943.090820	2925.738525	24.172991
649.481201	1326.723511	7939.155762	2926.383789	24.191708
649.814087	1323.475830	7926.875000	2923.544922	24.230991
650.146973	1323.949097	7914.399902	2921.114746	24.234543
650.479736	1322.873657	7914.377930	2918.426025	24.206194
650.812500	1323.820068	7909.216797	2915.737549	24.173449
651.145203	1324.185547	7898.226074	2917.716064	24.239742
651.477844	1325.045898	7892.375488	2918.791504	24.267788
651.810486	1322.529419	7888.052734	2915.264648	24.259075
652.143005	1322.421875	7879.083984	2912.360840	24.249212
652.475525	1322.830566	7875.061035	2916.124756	24.316822
652.807922	1321.389526	7863.532715	2913.909668	24.342484
653.140381	1321.131348	7854.090820	2913.500977	24.374399
653.472717	1322.206787	7835.443359	2908.252930	24.351122
653.805115	1322.744507	7811.312012	2906.510986	24.408569
654.137390	1323.303833	7778.468750	2900.252197	24.429249
654.469543	1322.292847	7743.497070	2888.379395	24.389297
654.801758	1323.992065	7706.976563	2879.604492	24.371241
655.133850	1322.938110	7666.024902	2872.635742	24.431284
655.465881	1323.798340	7628.988770	2864.892822	24.441681
655.797974	1326.874023	7598.726563	2860.870850	24.458433
656.129944	1328.723755	7561.474609	2856.440186	24.511110
656.461853	1331.111206	7537.429199	2854.332275	24.543072
656.793762	1330.465942	7519.620605	2849.342285	24.540934
657.125610	1329.476685	7518.437500	2850.137939	24.570541
657.457397	1330.100342	7528.761230	2848.589355	24.497047
657.789124	1327.884888	7549.730957	2855.966553	24.559940
658.120789	1325.863281	7595.220703	2870.850098	24.643463
658.452393	1325.712646	7671.316895	2890.809570	24.664268
658.783997	1325.906250	7765.521484	2914.489990	24.668922
659.115540	1325.024292	7877.062500	2944.429199	24.716049
659.447083	1322.099243	7988.430176	2975.680420	24.804966
659.778503	1323.475952	8102.724609	3002.500732	24.767122
660.109924	1322.895264	8201.403320	3028.159912	24.791201
660.441284	1327.067749	8284.660156	3050.270264	24.767225
660.772522	1329.347656	8343.678711	3065.842773	24.756390
661.103760	1328.401245	8376.391602	3076.704102	24.805693
661.434998	1329.067993	8385.361328	3079.693604	24.809422
661.766113	1332.659912	8352.733398	3073.585205	24.799248
662.097229	1332.573730	8281.864258	3054.184570	24.773909
662.428345	1334.746094	8188.197266	3029.106445	24.722733
662.759277	1336.638794	8055.599609	2996.285156	24.700937
663.090332	1339.757446	7920.400391	2965.184570	24.700127
663.421204	1336.617310	7777.931641	2930.320068	24.741888
663.752075	1336.230225	7635.720215	2897.348389	24.781658
664.082886	1333.584595	7499.488770	2865.343994	24.842413
664.413635	1332.401733	7379.345215	2839.168945	24.917833
664.744324	1331.347778	7271.783203	2814.176758	24.961620
665.075012	1333.627686	7177.986328	2792.948242	24.969730
665.405640	1333.477051	7108.106445	2772.881104	24.926346
665.736206	1333.971802	7047.948730	2758.771973	24.935350
666.066772	1332.638184	6992.845215	2748.512695	25.014536
666.397278	1331.175659	6956.948242	2738.963135	25.023897
666.727661	1328.895752	6917.653320	2727.606934	25.027229
667.058044	1331.648804	6889.562988	2722.595459	25.026415
667.388306	1331.068237	6871.109375	2717.476563	25.025236
667.718567	1330.874756	6853.817383	2711.970459	25.006519
668.048828	1331.842651	6843.343262	2707.496826	24.959703
668.378967	1334.186890	6841.342285	2708.959473	24.963388
668.709167	1333.907227	6841.601074	2707.152832	24.933224
669.039246	1334.165283	6841.170410	2710.551025	24.993364
669.369263	1335.434326	6843.127930	2714.099854	25.031631
669.699341	1336.638794	6839.643555	2713.131836	25.013481
670.029236	1335.993530	6832.223145	2713.260986	25.058405
670.359131	1335.735474	6828.630859	2712.658691	25.067348
670.688965	1335.993530	6818.565430	2710.013428	25.061594
671.018738	1338.402466	6799.423340	2703.754395	25.001770
671.348511	1339.563965	6785.142578	2701.582275	25.011452
671.678223	1340.617676	6766.085449	2696.936523	24.999113
672.007813	1339.284302	6734.426270	2689.688232	25.029997
672.337341	1339.714478	6704.465332	2679.923584	24.981758
672.666992	1340.596313	6671.987793	2670.395508	24.942816
672.996460	1339.822144	6636.758301	2662.652588	24.973503
673.325867	1340.768555	6604.001465	2651.447021	24.902536
673.655273	1343.693604	6570.578125	2641.531494	24.830046
673.984619	1346.166992	6531.841797	2631.229492	24.781008
674.314026	1346.769165	6501.708984	2623.421875	24.765617
674.643250	1347.457397	6475.360840	2617.743896	24.772045
674.972412	1348.102539	6445.852051	2612.022461	24.793684
675.301514	1346.123901	6418.300293	2605.914307	24.837276
675.630676	1348.425171	6399.007813	2599.849121	24.777815
675.959778	1348.726196	6375.133301	2596.558350	24.825529
676.288757	1346.769043	6355.583008	2593.955811	24.899841
676.617737	1347.994995	6330.139160	2585.202148	24.832827
676.946594	1345.564575	6317.104980	2584.599854	24.922562
677.275513	1346.769043	6303.340820	2580.943604	24.899761
677.604309	1348.296143	6301.619141	2577.889160	24.823597
677.933044	1348.339111	6297.081055	2578.104248	24.850054
678.261780	1347.371216	6302.092285	2579.739014	24.872597
678.590393	1346.725952	6318.115723	2581.007813	24.827703
678.919067	1347.736816	6339.990234	2587.739990	24.838547
679.247620	1350.597290	6369.906738	2594.988037	24.792070
679.576111	1354.576294	6414.687012	2603.161133	24.675049
679.904541	1357.888672	6464.951660	2613.334473	24.582541
680.232971	1360.211548	6527.389160	2628.519287	24.545464
680.561401	1367.094238	6579.482422	2637.466797	24.372179
680.889709	1368.986816	6631.660645	2653.318359	24.404543
681.217957	1370.320313	6676.612793	2665.599365	24.410246
681.546143	1373.030396	6715.370117	2672.223633	24.318806
681.874390	1376.299683	6754.256348	2682.074219	24.280125
682.202454	1380.837769	6781.851074	2687.946045	24.201168
682.530579	1384.322144	6789.357422	2689.215088	24.142174
682.858521	1385.376099	6781.614258	2684.203613	24.069128
683.186523	1385.913696	6746.879395	2678.030762	24.102318
683.514465	1386.193237	6701.539551	2665.147461	24.061541
683.842346	1388.881836	6645.490234	2649.747803	23.986301
684.170166	1386.279297	6579.826172	2636.885742	24.080008
684.497925	1386.472778	6514.226563	2620.345947	24.062645
684.825623	1385.655396	6446.218262	2602.042725	24.036600
685.153320	1384.773682	6370.703125	2583.481445	24.041811
685.481018	1383.354126	6294.414551	2559.263428	23.944101
685.808533	1384.106934	6218.426270	2540.766602	23.926008
686.136047	1385.784668	6154.891113	2521.344727	23.810751
686.463623	1386.774048	6099.916992	2508.224854	23.794117
686.791016	1387.526855	6063.267090	2497.299072	23.734686
687.118408	1389.634644	6037.909180	2491.147461	23.697241
687.445740	1388.042969	6019.132813	2487.577148	23.742451
687.772949	1389.613159	6015.045410	2485.211182	23.686394
688.100220	1391.161621	6012.099609	2481.726807	23.600515
688.427429	1396.474121	6003.087402	2478.479004	23.488077
688.754517	1399.270264	6008.249512	2476.198975	23.365883
689.081604	1402.259888	5999.280762	2474.542969	23.325607
689.408630	1401.657593	5991.171875	2471.639648	23.313623
689.735657	1402.023193	5971.492188	2468.736084	23.344353
690.062622	1401.377930	5948.737305	2462.068359	23.325415
690.389465	1403.141602	5917.722168	2454.648193	23.291346
690.716248	1404.238647	5876.018555	2443.421143	23.238678
691.043091	1406.045288	5826.141113	2430.516357	23.177576
691.369812	1407.744385	5769.511230	2413.567871	23.060003
691.696533	1407.658325	5708.041016	2397.716553	23.022560
692.023132	1403.399658	5655.582520	2381.757568	23.008369
692.349670	1401.700439	5592.693359	2367.992432	23.056396
692.676270	1403.227661	5541.073730	2355.109131	23.004274
693.002747	1403.378052	5492.959961	2336.095947	22.807169
693.329163	1403.313599	5450.717773	2322.933105	22.721216
693.655518	1405.593506	5407.400879	2311.770508	22.644194
693.981873	1404.389038	5364.772461	2299.575195	22.603523
694.308167	1406.260254	5326.423828	2288.627686	22.508434
694.634399	1406.195801	5301.151367	2277.120850	22.360332
694.960571	1406.604492	5276.309570	2271.743896	22.356728
695.286743	1409.400513	5256.242676	2267.571289	22.308447
695.612854	1414.239746	5242.563477	2264.796631	22.217476
695.938904	1418.713379	5237.853516	2262.430664	22.091812
696.264832	1420.197388	5241.918457	2261.677979	22.018368
696.590820	1425.208862	5250.500000	2268.582275	22.047300
696.916687	1428.047974	5274.652832	2273.808594	21.987198
697.242554	1430.822510	5313.324707	2282.949463	21.947882
697.568359	1435.919800	5373.332520	2297.661133	21.885981
697.894043	1442.802490	5455.772949	2315.491211	21.746702
698.219788	1451.663696	5556.581055	2345.322754	21.770451
698.545349	1459.578735	5674.015137	2373.240234	21.679327
698.870972	1470.827515	5799.234375	2401.179443	21.494097
699.196533	1477.903442	5917.076660	2432.215088	21.497507
699.521973	1484.678589	6021.197266	2458.756104	21.471918
699.847412	1493.948730	6108.326172	2483.619385	21.447544
700.172852	1502.121582	6172.678223	2495.965088	21.278910
700.498169	1510.208618	6207.930176	2501.471191	21.100922
700.823486	1514.832764	6215.135742	2504.030762	21.045410
701.148682	1517.456909	6188.142578	2496.180420	20.954601
701.473816	1518.682739	6122.328613	2482.157227	20.928509
701.799072	1518.897949	6019.906738	2452.604980	20.744394
702.124146	1515.607300	5893.568848	2420.063232	20.659294
702.449158	1510.832153	5747.744141	2382.789795	20.580027
702.774109	1510.466675	5599.274414	2342.526855	20.349703
703.099060	1508.014771	5460.439941	2303.833984	20.134958
703.424011	1501.906372	5323.562500	2266.689697	20.011829
703.748840	1494.937866	5198.386230	2237.072998	20.039030
704.073608	1492.292236	5088.071289	2211.327881	19.996658
704.398315	1489.216675	4990.511230	2186.270996	19.908474
704.723022	1488.506958	4912.694824	2168.117920	19.847361
705.047668	1487.194946	4849.225098	2147.491943	19.639830
705.372253	1486.958496	4791.949219	2133.468506	19.561628
705.696716	1489.560913	4742.028809	2118.585205	19.339909
706.021240	1486.377808	4705.701660	2111.229492	19.409409
706.345764	1486.076660	4678.321777	2103.916504	19.354399
706.670044	1489.023315	4652.834961	2099.034424	19.280893
706.994446	1493.626099	4636.037109	2094.646729	19.126099
707.318665	1498.056641	4628.853516	2093.377686	19.015001
707.642883	1500.013794	4621.927246	2088.667725	18.855549
707.967102	1503.326050	4619.539551	2085.892822	18.694700
708.291260	1507.907349	4620.271484	2085.075439	18.544361
708.615295	1511.757324	4613.496582	2085.634766	18.501795
708.939331	1514.875854	4623.369141	2086.452148	18.387568
709.263367	1517.671875	4634.337891	2091.162354	18.400768
709.587280	1525.285645	4649.156250	2089.312744	18.055393
709.911194	1529.910034	4660.512207	2094.926270	18.048166
710.234985	1534.168457	4682.300293	2096.217041	17.853401
710.558716	1538.620728	4706.905762	2099.722656	17.709957
710.882568	1546.449707	4732.435547	2104.820068	17.525827
711.206177	1551.869629	4761.234863	2114.692139	17.536879
711.529785	1558.451172	4791.948242	2120.864990	17.393360
711.853394	1566.322998	4811.542480	2123.790039	17.178101
712.176880	1571.054810	4837.051270	2128.414063	17.065519
712.500427	1575.356567	4848.170898	2133.554688	17.055599
712.823792	1581.636841	4854.945801	2135.060547	16.907164
713.147217	1587.981689	4857.269043	2138.759521	16.847031
713.470520	1594.068481	4847.482422	2134.307617	16.605299
713.793823	1596.627808	4831.975098	2132.694580	16.569065
714.117004	1599.639038	4813.134277	2127.919922	16.439449
714.440247	1599.165894	4789.754395	2121.510254	16.371412
714.763367	1603.875854	4761.858887	2114.885742	16.181528
715.086365	1608.371094	4733.424805	2105.486572	15.907422
715.409485	1608.629272	4712.583984	2098.797852	15.791744
715.732361	1610.801636	4689.419922	2093.528320	15.679979
716.055298	1614.780762	4668.600098	2085.763916	15.422757
716.378174	1617.232544	4652.146484	2082.322510	15.324650
716.700928	1617.490723	4631.476563	2076.837891	15.240521
717.023804	1617.533691	4612.958496	2071.009277	15.138941
717.346558	1623.104248	4589.815918	2065.675537	14.917907
717.669189	1625.040161	4560.134766	2058.469971	14.767149
717.991760	1629.470703	4523.679199	2051.738281	14.590089
718.314392	1629.169556	4482.189453	2041.027344	14.435853
718.636902	1627.621094	4440.808105	2031.069092	14.341314
718.959351	1629.341797	4385.704590	2019.562134	14.157075
719.281738	1630.244995	4331.891113	2007.431641	13.961365
719.604065	1629.642700	4277.132324	1997.365723	13.889498
719.926453	1629.685913	4219.189453	1979.879761	13.523591
720.248718	1630.782715	4167.097168	1967.619995	13.280581
720.570923	1631.535522	4116.423828	1957.360962	13.112278
720.893066	1628.094116	4070.225098	1945.187500	12.984291
721.215088	1627.599487	4024.885742	1936.369019	12.879962
721.537170	1624.631348	3983.074463	1925.679321	12.764691
721.859192	1624.695801	3953.220947	1919.893799	12.677466
722.181152	1625.448730	3915.560303	1914.064941	12.602714
722.503052	1625.964844	3889.772461	1907.870728	12.452731
722.824951	1626.739136	3870.092285	1903.870361	12.353438
723.146790	1625.857300	3852.434326	1895.783325	12.122913
723.468506	1624.373169	3838.518799	1894.256226	12.189039
723.790161	1624.953979	3823.914795	1889.287842	12.020853
724.111816	1626.889771	3815.247070	1886.491821	11.862872
724.433472	1631.427856	3805.503906	1886.900513	11.750860
724.755005	1636.890991	3800.771973	1886.642578	11.541837
725.076477	1641.708862	3796.147705	1886.126465	11.344837
725.397888	1646.956665	3793.975586	1884.534668	11.065482
725.719299	1652.613281	3796.771240	1887.567261	10.957867
726.040710	1656.097656	3798.341553	1891.051514	10.967652
726.361938	1660.291748	3797.567383	1891.352783	10.811007
726.683167	1668.808716	3805.762451	1895.654297	10.615373
727.004395	1676.659058	3811.676758	1899.439575	10.434599
727.325500	1686.273438	3822.968750	1904.816528	10.228088
727.646667	1695.306763	3836.905273	1911.462769	10.093208
727.967651	1702.640991	3852.821289	1914.818237	9.867882
728.288635	1711.201172	3870.888184	1921.076904	9.717877
728.609558	1721.976685	3887.062500	1926.475342	9.445291
728.930481	1729.267944	3898.289307	1931.207031	9.310147
729.251282	1736.430054	3910.721191	1934.368774	9.103599
729.572021	1742.646118	3921.582764	1934.003052	8.782125
729.892761	1749.743774	3928.292969	1938.648804	8.671139
730.213440	1756.110107	3928.594482	1940.670776	8.495374
730.534119	1766.390747	3936.121826	1942.133301	8.099739
730.854675	1771.036743	3941.284180	1946.607056	8.089875
731.175171	1775.725342	3945.972412	1945.746460	7.834183
731.495605	1783.597290	3952.231445	1949.273804	7.639670
731.816101	1788.436646	3954.468506	1945.746460	7.262581
732.136475	1790.307739	3957.630371	1944.714111	7.124290
732.456787	1797.340942	3961.308350	1946.757446	6.904749
732.777039	1803.900879	3962.813477	1946.563965	6.608099
733.097229	1807.621826	3969.911133	1950.005127	6.584840
733.417480	1813.644165	3973.847412	1950.005371	6.312425
733.737549	1815.558472	3973.825684	1950.542603	6.254283
734.057617	1816.268066	3964.921631	1949.553223	6.203194
734.377563	1818.461670	3945.822021	1946.391724	6.013558
734.697510	1819.666138	3920.313477	1943.724731	5.905731
735.017517	1818.268433	3893.535889	1938.089722	5.773776
735.337341	1818.719971	3861.488525	1933.787964	5.632943
735.657166	1820.462158	3826.151367	1928.410889	5.382126
735.976868	1816.547607	3791.652344	1919.528442	5.213943
736.296631	1813.084839	3753.604736	1913.742554	5.187152
736.616272	1813.213745	3716.202393	1905.892090	4.870147
736.935852	1811.278076	3682.929443	1899.525757	4.714963
737.255371	1811.815918	3650.839600	1889.782715	4.239575
737.574829	1811.643799	3622.341553	1885.803589	4.095647
737.894348	1811.407349	3606.791260	1881.308228	3.893367
738.213745	1814.203247	3598.833496	1880.060913	3.690269
738.533081	1817.063965	3588.465820	1879.006958	3.496835
738.852356	1821.601929	3593.047119	1880.276123	3.312222
739.171570	1827.516724	3600.704102	1884.491699	3.213139
739.490784	1835.560669	3604.403320	1886.943481	2.904883
739.809937	1843.583130	3611.028320	1886.620972	2.435031
740.129028	1851.089478	3604.791260	1888.986816	2.160991
740.447998	1855.305176	3598.725830	1888.728638	1.917120
740.767029	1858.983154	3595.972656	1891.029785	1.844952
741.085999	1862.682373	3588.423340	1891.244995	1.655093
741.404846	1864.101929	3573.109375	1888.513550	1.428409
741.723633	1863.327637	3551.988525	1884.211792	1.236729
742.042358	1861.714478	3528.221924	1878.619629	1.014406
742.361145	1858.617310	3494.196289	1871.414551	0.782429
742.679810	1856.509644	3461.418213	1864.618286	0.505240
742.998413	1852.638184	3425.457031	1858.638794	0.381519
743.316956	1846.250122	3390.420410	1852.186646	0.384447
743.635498	1841.324951	3362.674805	1846.615967	0.347784
743.953979	1838.141724	3338.628906	1842.292847	0.276652
744.272400	1836.464111	3308.108643	1837.561279	0.074554
744.590698	1833.302368	3283.417725	1831.345337	-0.134957
744.909058	1829.388184	3260.339600	1827.925415	-0.102223
745.227356	1827.409424	3239.820557	1824.892700	-0.178186
745.545471	1826.742554	3222.097900	1824.785156	-0.140280
745.863586	1825.409058	3203.257080	1825.043091	-0.026561
746.181702	1820.806519	3183.792236	1824.935913	0.302967
746.499756	1820.118042	3175.942139	1824.376831	0.314111
746.817810	1822.569946	3166.972900	1825.602661	0.225581
747.135742	1823.430420	3161.961670	1825.280029	0.138182
747.453613	1824.548828	3153.874756	1827.215698	0.200618
747.771423	1827.086670	3149.702148	1832.979980	0.445580
748.089233	1829.581543	3145.250000	1837.539429	0.604855
748.406982	1837.389038	3144.432617	1843.948853	0.501882
748.724609	1841.045410	3145.271240	1848.723511	0.588709
749.042236	1846.572754	3143.980713	1853.778076	0.555363
749.359863	1850.121826	3147.078125	1862.295288	0.938618
749.677429	1858.208862	3152.046631	1869.457397	0.869393
749.994873	1863.779297	3154.154541	1878.447754	1.136759
750.312256	1868.812134	3155.143555	1886.427246	1.369407
750.629639	1872.103027	3156.003906	1894.901489	1.775718
750.946960	1880.189941	3156.842773	1904.902710	1.935747
751.264282	1882.168823	3154.025146	1912.000366	2.345512
751.581482	1887.266113	3152.132568	1921.678955	2.720670
751.898621	1888.406128	3150.110840	1930.669434	3.349699
752.215698	1892.427856	3147.938477	1943.918335	4.101158
752.532715	1894.256348	3147.615723	1955.704590	4.902683
752.849792	1898.020264	3148.476318	1964.114380	5.285601
753.166748	1901.031372	3146.454590	1973.513184	5.819854
753.483643	1904.773804	3142.066650	1983.256348	6.343086
753.800476	1906.128906	3139.851563	1997.688354	7.421396
754.117310	1911.591797	3139.421143	2009.152222	7.945764
754.434082	1912.387451	3135.506836	2020.938721	8.874953
754.750732	1916.517090	3139.636475	2035.521118	9.729551
755.067383	1920.689575	3141.378662	2047.264526	10.369140
755.383911	1923.765259	3137.077148	2057.029053	10.983474
755.700562	1925.507324	3139.120117	2066.213135	11.593963
756.016968	1927.314087	3137.313477	2073.568848	12.087176
756.333435	1931.400757	3130.818115	2088.237305	13.076061
756.649780	1933.981934	3129.010986	2099.335693	13.836799
756.966064	1936.562866	3129.484619	2112.950195	14.786160
757.282410	1940.885620	3129.742432	2124.069580	15.408412
757.598633	1945.940186	3132.732178	2140.587646	16.401144
757.914795	1951.403076	3138.883545	2158.611572	17.449423
758.230896	1957.575806	3146.303955	2176.441650	18.411766
758.546936	1962.092651	3158.283691	2196.207275	19.571674
758.862976	1970.932495	3168.198975	2218.145508	20.648119
759.178894	1979.664795	3177.253662	2237.868652	21.560308
759.494812	1988.332764	3188.308838	2259.183105	22.571312
759.810669	1994.247314	3199.622070	2278.906006	23.615784
760.126526	2002.269653	3208.569580	2299.984131	24.679972
760.442261	2008.829590	3214.806885	2320.825195	25.870770
760.757935	2013.389160	3224.119629	2341.322266	27.085558
761.073608	2015.905762	3225.711670	2359.668701	28.414719
761.389160	2018.207031	3227.905518	2374.552246	29.457357
761.704712	2024.917603	3230.164063	2389.199463	30.224678
762.020203	2029.025513	3229.217285	2405.781982	31.391356
762.335571	2033.348755	3242.917969	2427.117920	32.554497
762.650940	2045.221191	3264.253906	2462.133057	34.200218
762.966370	2069.826416	3312.926514	2517.128906	35.982822
763.281677	2110.368896	3394.571045	2593.310303	37.606339
763.596863	2154.266602	3499.401367	2686.698242	39.582031
763.911987	2199.627197	3606.425537	2773.676758	40.805389
764.227112	2239.911865	3690.006104	2849.105713	42.010639
764.542236	2273.378174	3756.508545	2911.758789	43.042786
764.857178	2297.596436	3808.837646	2962.044434	43.967037
765.172119	2311.985352	3837.636719	3003.146240	45.302677
765.487061	2324.567383	3858.413330	3038.139893	46.521786
765.801880	2333.579590	3864.199219	3057.948975	47.325237
766.116760	2329.127197	3845.895996	3060.916504	48.246597
766.431458	2312.781006	3798.449463	3038.247559	48.830986
766.746155	2276.217529	3709.492188	2983.746094	49.364479
767.060791	2232.878906	3593.026367	2911.285400	49.877422
767.375427	2185.518066	3471.462402	2844.137451	51.216789
767.689941	2143.964600	3367.729004	2785.420410	52.416611
768.004395	2109.250732	3278.169434	2737.371338	53.735184
768.318848	2084.258301	3200.246094	2700.614258	55.229633
768.633179	2062.449219	3138.819336	2667.061523	56.171413
768.947632	2041.629395	3083.199219	2634.089600	56.881470
769.261841	2020.831177	3027.923584	2613.184082	58.818127
769.576111	2006.678955	2983.724365	2590.407227	59.744232
769.890259	1989.106689	2941.031250	2570.942383	61.122040
770.204285	1975.750122	2907.843994	2557.886963	62.454742
770.518433	1961.920410	2873.883057	2546.336914	64.083382
770.832458	1952.607422	2845.836670	2532.399902	64.909706
771.146362	1943.423706	2820.134521	2521.602783	65.948662
771.460205	1933.056763	2796.303711	2510.526367	66.895065
771.774109	1919.915283	2772.106934	2498.072998	67.843628
772.087952	1911.527344	2752.814209	2488.888916	68.628380
772.401672	1906.257813	2728.961670	2482.909912	70.092308
772.715332	1899.999146	2712.916748	2474.865967	70.716492
773.028992	1892.600342	2696.527588	2469.209229	71.724014
773.342590	1889.029785	2679.643555	2467.897461	73.217506
773.656128	1883.308716	2663.641846	2465.552979	74.614830
773.969604	1882.491455	2651.618896	2463.058350	75.483833
774.283020	1878.211426	2633.035889	2460.692383	77.167740
774.596375	1872.275024	2618.776123	2455.853027	78.175102
774.909729	1869.930542	2604.322510	2454.325928	79.575409
775.223022	1867.220581	2592.988037	2449.981201	80.295776
775.536194	1863.198730	2577.394775	2450.217529	82.192947
775.849304	1855.670776	2568.318359	2447.701416	83.074814
776.162476	1850.422729	2556.790039	2441.442383	83.670303
776.475525	1848.530029	2546.122070	2437.958008	84.494652
776.788513	1845.002808	2538.701660	2433.742432	84.869629
777.101440	1843.153198	2527.668213	2432.086182	86.036530
777.414307	1839.561279	2518.742432	2429.204102	86.816727
777.727173	1836.227661	2514.161133	2429.311768	87.484116
778.039978	1838.034058	2506.654541	2428.666748	88.336014
778.352722	1836.076904	2499.858154	2425.268311	88.762886
778.665405	1835.302612	2495.126465	2424.537109	89.301788
778.977966	1834.872559	2493.212158	2420.902100	89.016296
779.290649	1836.442871	2491.233643	2421.870117	89.406761
779.603149	1840.034424	2487.964600	2423.612061	90.067986
779.915588	1839.238647	2485.254150	2426.020996	90.831001
780.227966	1840.120361	2478.371582	2426.773682	91.915741
780.540405	1838.744019	2478.543457	2424.279053	91.518532
780.852722	1835.496460	2476.543457	2423.031494	91.652412
781.164917	1834.592896	2467.983398	2418.902100	92.251022
781.477173	1832.033325	2461.509277	2415.009033	92.612862
781.789246	1829.624634	2456.046387	2412.987305	93.126183
782.101379	1827.323120	2448.131348	2410.771729	93.982101
782.413452	1823.838989	2439.441895	2405.072510	94.416954
782.725403	1822.591675	2429.354736	2397.587646	94.764496
783.037292	1816.784424	2421.999268	2393.586914	95.305412
783.349182	1815.794922	2409.911621	2388.962646	96.473930
783.661072	1809.579224	2401.222168	2383.349365	96.979126
783.972839	1804.868652	2387.263672	2377.090332	98.253189
784.284546	1804.739746	2378.101074	2371.089600	98.777130
784.596191	1801.664063	2370.938965	2364.916748	98.942123
784.907898	1797.104370	2363.884277	2359.991211	99.313126
785.219421	1795.104248	2357.883545	2353.990479	99.308243
785.530884	1795.211670	2350.872070	2348.140381	99.508392
785.842346	1793.276123	2343.709961	2345.645508	100.351639
786.153748	1790.522949	2338.892090	2341.795410	100.529449
786.465149	1789.232300	2331.643799	2337.493896	101.078537
786.776428	1784.156616	2330.697510	2332.396729	100.310905
787.087646	1785.490112	2327.385254	2332.719238	100.984322
787.398804	1789.339844	2330.976807	2340.268555	101.715492
787.709961	1790.759644	2338.977783	2348.570557	101.749809
788.021057	1800.373535	2356.098389	2364.142334	101.447472
788.332031	1810.288696	2372.960693	2381.993896	101.605415
788.643005	1817.429565	2386.016113	2399.458496	102.364174
788.953918	1820.397583	2399.824219	2415.933838	102.780266
789.264832	1826.333862	2412.987061	2432.817383	103.380249
789.575623	1831.344971	2423.225098	2445.829834	103.819138
789.886353	1835.711304	2428.795898	2452.583740	104.010872
790.197083	1839.690308	2433.312500	2459.616455	104.431091
790.507690	1840.830200	2432.882080	2461.380127	104.813438
790.818359	1839.883667	2430.000244	2453.959961	104.060165
791.128845	1834.033569	2417.439453	2443.442627	104.457130
791.439331	1825.021606	2397.372314	2424.859619	104.802528
791.749756	1813.493408	2376.122314	2405.566895	105.233391
792.060120	1803.513794	2354.442139	2385.779541	105.688110
792.370483	1794.286987	2334.676270	2366.831055	105.950302
792.680786	1784.500732	2314.157715	2346.118896	106.034317
792.990967	1776.564331	2292.499023	2330.267334	107.320366
793.301086	1769.896606	2278.476074	2320.179932	108.200066
793.611267	1764.067993	2265.033447	2309.038818	108.784111
793.921326	1759.529785	2255.290039	2298.521484	108.720230
794.231323	1754.927246	2244.105713	2291.144043	109.615784
794.541260	1753.980835	2236.771729	2285.810303	110.157310
794.851074	1751.786743	2231.502197	2285.487549	111.253616
795.161011	1751.528931	2228.921143	2283.745361	111.484100
795.470764	1754.389404	2235.287354	2284.842041	110.304619
795.780518	1759.572754	2239.739990	2294.069336	111.314674
796.090149	1766.197388	2247.396729	2304.070557	111.777618
796.399780	1772.499268	2258.581055	2313.405029	111.278755
796.709412	1774.069214	2264.280518	2322.201904	111.815598
797.018860	1780.285156	2268.474609	2330.159668	112.635475
797.328308	1782.737061	2277.400635	2336.848633	112.017868
797.637756	1785.447144	2283.745361	2343.752686	112.042450
797.947205	1786.630005	2284.154053	2346.914307	112.614517
798.256470	1786.974121	2284.003662	2348.893066	113.055443
798.565674	1787.748413	2281.400879	2346.441162	113.175316
798.874817	1783.619019	2271.808350	2344.741943	114.939613
799.183960	1780.306641	2263.377197	2334.224609	114.666061
799.493103	1774.843628	2252.300537	2321.169189	114.424057
799.802124	1768.068481	2240.364014	2308.178711	114.358528
800.111084	1765.423096	2231.007813	2292.886230	113.290474
800.419983	1757.594238	2220.597900	2280.067383	112.844276
800.728821	1752.002075	2205.671387	2267.356201	113.596870
801.037659	1750.432007	2192.680420	2256.365479	114.400291
801.346436	1747.657471	2185.152588	2248.020508	114.369972
801.655151	1742.603027	2176.721436	2236.212646	113.703911
801.963745	1741.591919	2167.816895	2227.501709	114.003128
802.272400	1741.463013	2161.794678	2218.963135	113.600800
802.580933	1737.268799	2153.707520	2209.327393	113.356079
802.889404	1734.343750	2144.631348	2203.864502	114.436981
803.197815	1729.095825	2138.264893	2197.605713	114.502762
803.506226	1725.095581	2133.769775	2192.142334	114.283394
803.814575	1721.826294	2127.876465	2184.915771	114.047356
804.122864	1719.697144	2125.983643	2181.281006	113.610435
804.431030	1715.395386	2124.499756	2177.624756	112.985687
804.739197	1712.749878	2121.488525	2176.398682	113.434052
805.047241	1713.330566	2120.800293	2178.786133	114.230713
805.355408	1710.276489	2122.757568	2182.829590	114.563583
805.663391	1708.082764	2125.682617	2185.345947	114.287201
805.971313	1711.201294	2130.242432	2189.260498	114.084076
806.279175	1714.319946	2137.211182	2191.776855	112.903008
806.587036	1716.363281	2140.802979	2195.132080	112.800194
806.894836	1720.126953	2140.845947	2197.325928	113.424629
807.202576	1724.278198	2142.029053	2201.111572	114.143005
807.510193	1724.471802	2142.308350	2202.616943	114.433540
807.817810	1725.396484	2135.447266	2200.401855	115.840622
808.125427	1725.224487	2131.231934	2196.444092	116.061813
808.432922	1721.933594	2127.898193	2189.475586	115.168167
808.740295	1718.040649	2119.531494	2180.549805	115.197937
809.047729	1717.632080	2107.551270	2171.538086	116.410278
809.355103	1711.997192	2094.883057	2161.816406	117.481277
809.662415	1704.103516	2085.247559	2151.578369	117.403084
809.969604	1702.103394	2072.256836	2138.135986	117.797798
810.276794	1697.048950	2061.631836	2126.241943	117.721649
810.583923	1689.972778	2053.394043	2117.488037	117.636284
810.890991	1685.821777	2045.887817	2106.024414	116.701546
811.197998	1681.670654	2042.532715	2100.066650	115.943474
811.505005	1678.207886	2036.574951	2092.323730	115.556335
811.811829	1677.541138	2028.573853	2087.549072	116.800491
812.118713	1675.046387	2022.917236	2080.730713	116.619232
812.425537	1671.669800	2017.002441	2071.676025	115.832153
812.732300	1667.927246	2014.357056	2064.083740	114.354042
813.038940	1665.281738	2007.947754	2058.125977	114.643478
813.345581	1662.550049	2005.667847	2051.759766	113.433266
813.652100	1659.560425	2000.721069	2051.006836	114.739616
813.958740	1655.753540	1994.419067	2044.726563	114.854622
814.265137	1654.699585	1989.364746	2041.844604	115.681305
814.571533	1651.064941	1985.213745	2035.520996	115.055344
814.877930	1647.687988	1978.890503	2032.940186	116.319221
815.184265	1642.418701	1974.631714	2028.186768	116.120697
815.490540	1640.332397	1971.986206	2028.014771	116.893692
815.796692	1638.417969	1970.760254	2028.079224	117.246971
816.102844	1639.880737	1969.448120	2030.423462	118.501633
816.408936	1640.934326	1967.319092	2031.821777	119.762772
816.714966	1639.321411	1963.705566	2038.553589	123.073883
817.020935	1640.224609	1964.114380	2038.854736	123.075859
817.326843	1644.332764	1969.319214	2041.650757	122.256790
817.632690	1644.784424	1974.051147	2047.070801	122.176445
817.938477	1646.569580	1978.933228	2053.200684	122.345238
818.244263	1651.344482	1986.310547	2058.706787	121.613007
818.549988	1655.624512	1993.666504	2066.987305	121.689850
818.855652	1664.614746	2002.420288	2075.504395	121.634964
819.161194	1673.196533	2017.282349	2093.291748	122.090248
819.466797	1682.531250	2035.585571	2114.627930	122.388161
819.772278	1697.113647	2064.341797	2143.362549	121.518166
820.077698	1716.857910	2098.711670	2178.527832	120.902283
820.383057	1736.817505	2138.243408	2221.608398	120.767220
820.688354	1759.551514	2182.098389	2272.367432	121.363083
820.993652	1794.373047	2239.266846	2339.924072	122.625000
821.298828	1849.239868	2335.816162	2454.799072	124.453087
821.604004	1957.984497	2530.765381	2671.879639	124.636688
821.909058	2141.426758	2852.417969	3032.440430	125.319931
822.214111	2372.982178	3276.234131	3518.565430	126.828758
822.519165	2622.045410	3728.139160	4023.315674	126.686394
822.824036	2852.590088	4134.684570	4490.125977	127.723495
823.128906	3047.818604	4480.727051	4875.701172	127.564507
823.433716	3204.956299	4764.031250	5192.600586	127.488693
823.738525	3333.811035	4996.641113	5452.503906	127.414879
824.043213	3437.909912	5184.965332	5658.120605	127.083015
824.347900	3516.478760	5324.487793	5809.300781	126.814743
824.652466	3560.140381	5400.970703	5883.288574	126.201103
824.957031	3532.158447	5357.825684	5831.066895	125.921547
825.261536	3423.585693	5163.371094	5610.158203	125.680588
825.565979	3249.542725	4848.858887	5245.230469	124.783813
825.870300	3048.249023	4486.792480	4834.749512	124.188148
826.174622	2863.623535	4162.429688	4457.821289	122.743317
826.478821	2716.530029	3907.107666	4176.195313	122.601433
826.783142	2622.389404	3735.882568	3985.439941	122.412117
827.087280	2566.619141	3632.514648	3869.038818	122.190186
827.391357	2532.292236	3564.441406	3802.127197	123.028244
827.695435	2504.052246	3512.069580	3745.345947	123.142097
827.999451	2473.704346	3458.062744	3690.457275	123.608734
828.303406	2449.722900	3408.035156	3638.622803	124.061852
828.607239	2422.622559	3363.277100	3589.906982	124.092789
828.911011	2400.340332	3317.550781	3540.847412	124.345192
829.214844	2377.778320	3273.803711	3495.465088	124.738289
829.518616	2349.990234	3221.087402	3440.640869	125.204247
829.822205	2310.307861	3143.981201	3349.210938	124.617523
830.125793	2246.235352	3029.880615	3219.152100	124.152702
830.429382	2162.999268	2886.852539	3054.378662	123.143654
830.732849	2077.978027	2735.048584	2880.937744	122.202965
831.036316	1998.312134	2597.225098	2728.058350	121.845116
831.339661	1931.916870	2478.156494	2598.752197	122.077438
831.642944	1874.963379	2376.767822	2486.415771	121.850731
831.946228	1826.355347	2293.552979	2391.694336	121.006393
832.249512	1789.210938	2229.093506	2320.567383	120.795067
832.552673	1762.218384	2179.517334	2268.022949	121.209160
832.855774	1744.603394	2150.331055	2236.126709	121.146118
833.158813	1744.388306	2141.878418	2237.072998	123.948921
833.461731	1761.465576	2169.150635	2268.453369	124.357704
833.764771	1792.566284	2216.683350	2325.277588	125.604782
834.067627	1828.678223	2274.453857	2390.296143	125.986679
834.370422	1863.521118	2330.224365	2453.314697	126.374435
834.673157	1895.202637	2384.897461	2511.193115	125.790688
834.975891	1919.463745	2426.300781	2559.930176	126.365356
835.278564	1941.595581	2461.617188	2599.203857	126.457878
835.581177	1955.188599	2485.383301	2624.153076	126.173363
835.883728	1963.296997	2501.449951	2637.466553	125.274712
836.186218	1962.845337	2501.858398	2632.068115	124.157059
836.488647	1949.682495	2482.694580	2603.118164	122.593033
836.791077	1918.388184	2430.537598	2546.595215	122.660889
837.093384	1879.953247	2358.593506	2466.993896	122.647568
837.395630	1831.882813	2283.444336	2378.423584	121.033516
837.697815	1787.984863	2209.714844	2292.477539	119.624573
838.000061	1746.109009	2140.351318	2211.929932	118.155998
838.302124	1713.395020	2077.698242	2141.340820	117.469673
838.604126	1681.778198	2021.906372	2079.634277	116.972397
838.906128	1653.387817	1971.297974	2026.122192	117.245193
839.208069	1629.255737	1927.894653	1981.751099	118.033966
839.510010	1614.049316	1895.783325	1944.262085	117.207283
839.811829	1602.564087	1873.436401	1923.335083	118.421478
840.113586	1595.337402	1860.596191	1908.730957	118.146339
840.415222	1589.250732	1854.724487	1902.945679	118.164200
840.716919	1588.153809	1848.680786	1901.569092	120.300507
841.018555	1584.669434	1844.207153	1901.676636	122.143021
841.320068	1587.228882	1840.270996	1901.138794	124.054413
841.621521	1584.884399	1839.905151	1900.515137	123.766685
841.922974	1584.669434	1837.496582	1900.127808	124.772346
842.224365	1581.486328	1836.507080	1896.837036	123.656883
842.525635	1580.367920	1829.796509	1887.373535	123.083572
842.826965	1575.205933	1815.300049	1878.856567	126.471504
843.128174	1562.042969	1796.114868	1856.574219	125.829391
843.429260	1550.062988	1774.564087	1830.958130	125.119720
843.730408	1537.050659	1751.808472	1804.718262	124.636955
844.031433	1523.134888	1728.859375	1779.897949	124.809189
844.332397	1514.166016	1708.362183	1754.389404	123.701408
844.633362	1501.132324	1689.413574	1732.214722	122.732559
844.934204	1490.485840	1670.378906	1714.341431	124.438141
845.235046	1481.495483	1652.462891	1695.091797	124.933937
845.535828	1475.924927	1636.116699	1679.412231	127.027313
845.836487	1466.848511	1625.061401	1666.507446	126.196373
846.137146	1458.696899	1616.716431	1652.054199	122.362915
846.437744	1452.437988	1608.263672	1642.805786	122.167152
846.738281	1447.577026	1599.789551	1634.761719	122.975883
847.038757	1441.984985	1591.508911	1628.051147	124.439056
847.339172	1438.350098	1582.497192	1619.684692	125.798302
847.639526	1433.231323	1576.689819	1615.619507	127.136551
847.939819	1429.703979	1571.979614	1609.661743	126.485298
848.240112	1428.284424	1570.302002	1602.112427	122.398933
848.540283	1425.251831	1569.205078	1596.713989	119.109612
848.840393	1424.499146	1570.624512	1591.035889	113.968399
849.140564	1420.412598	1567.936035	1586.132080	112.334343
849.440552	1419.036011	1564.043091	1584.583496	114.165108
849.740540	1419.294189	1560.580444	1577.593262	112.041382
850.040405	1416.863770	1562.344116	1573.076660	107.377312
850.340210	1417.358398	1559.139526	1566.968384	105.521790
850.640137	1417.380005	1556.988403	1564.494873	105.376801
850.939819	1416.024902	1553.869873	1558.472656	103.339104
851.239502	1417.530518	1549.202759	1555.418335	104.720490
851.539185	1414.885132	1545.438721	1551.783569	104.859955
851.838745	1414.863403	1543.890259	1550.148926	104.850670
852.138245	1411.314575	1536.190308	1550.020020	111.074776
852.437744	1412.045898	1532.598511	1550.041748	114.469398
852.737122	1410.927490	1528.555054	1546.492676	115.249504
853.036499	1408.970215	1525.651489	1546.170044	117.585129
853.335815	1410.669434	1518.682861	1545.546387	124.870544
853.635010	1409.443481	1517.478394	1544.556763	125.064461
853.934204	1408.518677	1517.736328	1542.664185	122.824020
854.233276	1407.077637	1515.478149	1543.287964	125.654686
854.532410	1403.206177	1514.230591	1540.470581	123.634430
854.831482	1400.990723	1513.628418	1542.298706	125.453545
855.130371	1398.237671	1508.208252	1540.448853	129.317474
855.429260	1398.581909	1509.326660	1538.341309	126.199570
855.728088	1397.248413	1509.455933	1536.469971	124.075066
856.026855	1395.957886	1508.681641	1535.071899	123.411446
856.325623	1396.495728	1506.917847	1534.340698	124.834564
856.624329	1393.054443	1508.487915	1530.490723	119.061028
856.922913	1392.538208	1505.713379	1527.823486	119.536179
857.221436	1389.935669	1502.487183	1524.081177	119.185875
857.519958	1390.796021	1502.250488	1521.908936	117.638100
857.818420	1394.280151	1502.659302	1522.747925	118.535507
858.116821	1395.871826	1501.046143	1517.994507	116.114548
858.415161	1396.108398	1502.444214	1515.994263	112.742699
858.713379	1397.656982	1498.357544	1513.047607	114.587868
859.011658	1397.592529	1495.496948	1512.595825	117.464867
859.309814	1397.162231	1494.722778	1509.843018	115.498314
859.607910	1396.087036	1493.776489	1505.993042	112.505501
859.905945	1396.065430	1491.152344	1505.928467	115.539597
860.203979	1394.774902	1491.647217	1504.681152	113.454758
860.501953	1395.377197	1493.131226	1502.293701	109.372993
860.799744	1395.162231	1489.001709	1500.164185	111.895287
861.097656	1392.258667	1487.668091	1497.346802	110.144394
861.395325	1388.752808	1486.291626	1495.647705	109.592163
861.693115	1386.924561	1484.721558	1492.636353	108.093086
861.990784	1384.214478	1486.678833	1489.345703	102.602730
862.288330	1384.515747	1485.603394	1484.678589	99.085144
862.585815	1382.988525	1484.850708	1483.173096	98.353058
862.883301	1381.461670	1483.237427	1481.925537	98.710999
863.180786	1379.676270	1482.119141	1481.280273	99.181137
863.478149	1379.052612	1479.710083	1480.699585	100.983040
863.775452	1380.816284	1477.000122	1481.688965	104.874878
864.072693	1380.063599	1478.957520	1484.162231	105.262924
864.369873	1378.385864	1477.236816	1485.646362	108.507301
864.667114	1382.278931	1478.011108	1487.173462	109.570816
864.964111	1385.526611	1479.495239	1489.173828	110.299812
865.261169	1385.741821	1477.559448	1494.163574	118.083809
865.558105	1386.085815	1478.484253	1496.938232	119.972176
865.855042	1386.623535	1479.710327	1497.389771	118.992432
866.151917	1386.558960	1479.387695	1498.680176	120.782875
866.448730	1387.311646	1479.215698	1497.260620	119.634521
866.745422	1388.300903	1479.581177	1497.497192	119.627480
867.042114	1384.881226	1478.871582	1496.636841	118.901154
867.338806	1383.504639	1476.828247	1493.453857	117.815010
867.635376	1384.429565	1473.279419	1491.862427	120.915070
867.931824	1381.697998	1470.418823	1489.259888	121.236351
868.228271	1377.482544	1468.289551	1489.044800	122.856438
868.524658	1376.987793	1467.644287	1486.184204	120.450729
868.821045	1375.654297	1464.762207	1484.097900	121.699188
869.117310	1372.944336	1463.235229	1484.248413	123.272758
869.413574	1373.718628	1464.590088	1485.151855	122.627312
869.709717	1373.309937	1463.858887	1485.495850	123.895325
870.005859	1372.535645	1463.321167	1482.549316	121.179756
870.301880	1374.751099	1464.073975	1482.678467	120.828362
870.597900	1373.482178	1465.471924	1481.710571	117.652672
870.893860	1372.944458	1469.988647	1482.248169	112.632927
871.189636	1372.858521	1471.795288	1483.646362	111.978432
871.485535	1375.181274	1473.128784	1483.968872	111.067245
871.781311	1373.159546	1473.838379	1482.398804	108.502708
872.077026	1372.944336	1476.053711	1483.022461	106.758598
872.372681	1373.116333	1476.914063	1483.388184	106.237244
872.668274	1372.557129	1475.623535	1482.592407	106.761536
872.963806	1373.180908	1475.322388	1481.065308	105.622513
873.259338	1372.987305	1476.806519	1482.871948	105.842300
873.554688	1371.202026	1477.107666	1482.635376	105.219467
873.850098	1372.965698	1475.989258	1483.753784	107.536652
874.145447	1374.170166	1474.548218	1483.689331	109.106682
874.440674	1374.815430	1472.956665	1483.173096	110.409927
874.735840	1375.740356	1470.762817	1482.570801	112.426521
875.031006	1375.310181	1471.816772	1485.022705	113.683968
875.326050	1376.858887	1473.322266	1485.452759	112.575233
875.621094	1378.493530	1472.999756	1485.474365	113.199776
875.916077	1378.041870	1472.397461	1485.237793	113.608452
876.210999	1377.955688	1474.505249	1487.345581	113.299210
876.505798	1377.288940	1473.386719	1488.743530	115.980400
876.800598	1377.891113	1472.096313	1490.550293	119.589127
877.095337	1378.450317	1474.225586	1490.313721	116.797798
877.390015	1380.256958	1476.441040	1490.077026	114.176971
877.684692	1383.956421	1477.709961	1490.098755	113.214218
877.979187	1384.063965	1475.107544	1489.001831	115.261139
878.273804	1385.999634	1474.612793	1488.249023	115.388496
878.568237	1385.462036	1472.074829	1489.453369	120.064636
878.862610	1389.720703	1475.301147	1492.916016	120.582817
879.156921	1391.548828	1481.366455	1497.239136	117.672119
879.451172	1393.570557	1484.979614	1500.078247	116.517654
879.745422	1397.377441	1492.400024	1506.509277	114.848312
880.039612	1404.453613	1503.562622	1518.015991	114.583305
880.333679	1414.175293	1517.392212	1534.620239	116.691086
880.627686	1426.692871	1541.588989	1559.913696	115.948936
880.921692	1448.071899	1581.056152	1605.145020	118.114075
881.215698	1485.151855	1648.505371	1677.971191	118.038071
881.509460	1540.857544	1743.699951	1784.672729	120.199318
881.803345	1615.834473	1867.951904	1924.646973	122.487564
882.097046	1697.027344	2007.667969	2083.247559	124.330231
882.390808	1781.962769	2147.577881	2243.804932	126.319221
882.684448	1864.316895	2284.390625	2396.189453	126.614098
882.978027	1938.240112	2405.029053	2530.507080	126.881104
883.271545	2002.420044	2512.375732	2651.339111	127.250092
883.565002	2054.275879	2604.021729	2753.050781	127.108719
883.858398	2095.011963	2674.782959	2831.296875	126.995819
884.151733	2119.531494	2717.541016	2877.689697	126.780289
884.445068	2122.865479	2726.273438	2883.109619	125.991730
884.738281	2102.690674	2690.333740	2839.534668	125.389717
885.031433	2051.652100	2612.775635	2746.706055	123.868256
885.324585	1987.816040	2503.751221	2624.798584	123.461739
885.617676	1917.505981	2386.231201	2489.426514	122.016167
885.910645	1845.475830	2264.646240	2358.550293	122.402359
886.203552	1777.919189	2154.202393	2233.846680	121.166046
886.496521	1716.234253	2049.866943	2116.563477	119.991005
886.789368	1661.582153	1953.898071	2011.303101	119.638008
887.082153	1610.737183	1865.629028	1918.151611	120.605827
887.374817	1567.570679	1788.802368	1835.044556	120.902153
887.667480	1530.146606	1719.998047	1766.348022	124.413811
887.960083	1495.884277	1663.797607	1708.125732	126.399406
888.252625	1474.569824	1620.888794	1663.991089	129.457764
888.545166	1457.858154	1588.239746	1625.405762	128.505569
888.837524	1442.092651	1563.978638	1598.907837	128.657272
889.129883	1430.650513	1542.836304	1573.872314	127.664833
889.422241	1421.100952	1526.576172	1557.375732	129.200760
889.714478	1416.218750	1510.144165	1537.588379	129.219162
890.006714	1430.177124	1493.819580	1505.648926	118.587189
890.298767	1380.493774	1503.756104	1519.607666	112.860023
890.590881	1384.515625	1464.009399	1487.195068	129.166641
890.882935	1380.020264	1486.011963	1487.194946	101.116112
>>>>>End Processed Spectral Data<<<<<
