Jaz Data File
++++++++++++++++++++++++++++++++++++
Date: Mon Apr 22 19:25:55 2019
User: jaz
Dark Spectrum Present: Yes
Reference Spectrum Present: Yes
Processed Spectrum Present: Yes
Spectrometers: JAZA2928
Integration Time (usec): 40000 (JAZA2928)
Spectra Averaged: 10 (JAZA2928)
Boxcar Smoothing: 5 (JAZA2928)
Correct for Electrical Dark: No (JAZA2928)
Strobe/Lamp Enabled: Yes (JAZA2928)
Correct for Detector Non-linearity: No (JAZA2928)
Correct for Stray Light: No (JAZA2928)
Number of Pixels in Processed Spectrum: 2048
>>>>>Begin Processed Spectral Data<<<<<
W	D	R	S	P
190.104553	0.000000	0.000000	0.000000	0.000000
190.488098	0.000000	0.000000	0.000000	0.000000
190.871613	1077.423828	1084.994751	1054.238281	-306.244659
191.255096	1080.499390	1079.079956	1067.487061	916.726868
191.638535	0.000000	0.000000	0.000000	0.000000
192.021942	903.294739	908.865295	899.939453	-60.232502
192.405334	1004.317993	1010.039124	1003.070496	-21.805088
192.788696	1107.599609	1112.288330	1106.696167	-19.268419
193.172012	1111.471069	1116.052246	1114.288574	61.501774
193.555313	1116.138306	1118.654663	1120.504395	173.508301
193.938568	1122.375488	1122.956299	1124.483398	362.925598
194.321793	1125.386597	1126.505127	1128.957153	319.218597
194.704987	1126.655640	1129.473267	1129.924927	116.029808
195.088150	1127.429810	1129.387207	1131.495117	207.689423
195.471298	1126.505249	1131.710083	1133.022095	125.207558
195.854401	1127.494629	1132.054199	1134.076050	144.343002
196.237457	1129.064575	1128.957031	1135.151245	-5659.705078
196.620499	1129.043091	1130.441040	1135.409302	455.396423
197.003494	1127.171875	1130.140137	1133.237061	204.334595
197.386475	1126.999878	1131.129395	1132.828369	141.142212
197.769424	1126.419067	1132.441406	1131.107910	77.857506
198.152344	1123.365112	1134.527832	1130.742188	66.086716
198.535217	1120.934570	1135.947266	1130.376587	62.893547
198.918076	1121.149658	1138.098022	1127.343872	36.547562
199.300903	1121.838013	1139.668091	1128.247192	35.945889
199.683670	1123.838257	1144.421387	1129.860352	29.257429
200.066422	1123.730591	1145.023560	1128.462402	22.222414
200.449142	1121.967041	1147.884277	1128.333496	24.564560
200.831848	1122.719849	1149.174683	1127.408569	17.723494
201.214508	1123.537109	1149.002686	1127.344116	14.949620
201.597137	1122.891846	1150.120972	1127.343994	16.350685
201.979736	1122.612183	1152.874146	1127.021362	14.570039
202.362274	1122.633789	1149.088623	1125.386841	10.406611
202.744827	1121.257202	1147.625977	1124.784668	13.377436
203.127319	1119.171021	1146.055908	1126.763306	28.239973
203.509796	1116.525513	1142.786621	1127.752686	42.752090
203.892227	1113.406860	1136.872070	1125.859985	53.070587
204.274643	1110.567749	1137.151489	1125.602051	56.554501
204.657013	1110.804321	1134.850342	1123.988770	54.830063
205.039352	1108.223389	1132.441406	1122.053101	57.105053
205.421661	1104.932617	1135.796753	1121.149658	52.543320
205.803940	1103.964722	1135.516968	1119.385864	48.874943
206.186188	1103.771118	1133.344727	1118.848267	50.981770
206.568405	1101.921387	1134.248169	1117.063232	46.839939
206.950592	1103.297974	1136.119263	1114.202637	33.224361
207.332748	1101.340698	1133.882446	1111.535645	31.328821
207.714859	1099.964233	1136.269775	1109.664307	26.717886
208.096939	1099.598511	1137.732422	1109.126709	24.986155
208.478989	1098.695190	1137.280762	1109.513794	28.037951
208.861008	1098.931763	1138.291626	1111.772217	32.623219
209.243011	1099.318848	1140.765137	1113.342285	33.835205
209.624969	1098.652222	1139.410034	1114.869263	39.788792
210.006897	1098.480103	1140.377808	1114.374512	37.936230
210.388794	1097.469238	1141.345703	1114.632690	39.117672
210.770645	1097.426270	1141.603882	1117.493286	45.423496
211.152481	1097.146606	1140.549927	1120.031250	52.725559
211.534286	1097.404785	1143.152344	1121.579834	52.844456
211.916061	1097.490723	1141.238159	1121.687378	55.309883
212.297791	1097.985474	1142.119995	1120.956177	52.047020
212.679489	1097.125122	1143.195435	1120.052856	49.766830
213.061157	1093.662354	1142.313599	1117.536255	49.071510
213.442795	1093.812988	1142.786743	1117.020142	47.386917
213.824402	1094.071167	1142.829712	1114.525269	41.949780
214.205963	1094.823730	1141.496216	1113.707886	40.461002
214.587524	1093.705444	1141.195190	1115.493042	45.878532
214.969025	1094.952881	1142.937378	1113.922974	39.533794
215.350510	1093.554932	1145.948486	1111.385010	34.031052
215.731949	1092.823730	1144.572021	1109.277222	31.795237
216.113358	1092.221558	1147.841309	1109.664307	31.360710
216.494736	1093.361328	1147.239014	1109.836426	30.578703
216.876083	1093.124878	1145.324707	1110.976440	34.198509
217.257401	1094.823975	1146.765747	1112.976563	34.947956
217.638702	1094.910034	1149.389771	1113.191650	33.556728
218.019943	1095.791748	1151.841553	1116.417969	36.799809
218.401169	1094.006592	1152.142700	1116.740479	39.104591
218.782349	1094.372070	1154.788208	1114.998413	34.140453
219.163498	1094.436646	1158.272583	1118.160034	37.163063
219.544632	1098.286621	1158.659668	1120.117188	36.159458
219.925705	1102.416138	1162.423584	1122.289551	33.118244
220.306778	1103.104370	1163.929199	1122.655151	32.142765
220.687805	1101.082520	1168.661011	1125.020996	35.423218
221.068802	1101.770996	1176.640503	1127.343872	34.156597
221.449738	1101.985840	1182.598145	1130.204468	35.005360
221.830673	1099.340454	1186.620117	1132.204834	37.654110
222.211563	1098.394043	1191.932617	1134.076050	38.146835
222.592438	1098.759766	1200.084106	1135.431152	36.192081
222.973267	1099.060913	1206.730225	1139.947754	37.974461
223.354065	1097.727417	1211.655518	1141.109253	38.078259
223.734848	1093.791382	1217.828369	1144.937500	41.234570
224.115555	1090.436157	1228.302734	1149.389648	42.761265
224.496262	1092.694458	1238.497559	1156.530396	43.782291
224.876923	1092.178223	1246.498535	1159.068237	43.344917
225.257568	1091.016846	1255.639526	1162.036377	43.140793
225.638168	1088.113281	1265.554688	1166.079956	43.939392
226.018723	1090.479248	1277.147583	1171.284912	43.288361
226.399277	1092.328735	1291.923462	1177.887817	42.866405
226.779785	1094.759277	1309.861206	1189.803345	44.185596
227.160263	1093.726929	1333.046875	1198.557129	43.803368
227.540695	1093.103149	1363.351685	1212.580322	44.210110
227.921112	1091.984741	1408.217529	1226.861694	42.651161
228.301483	1092.501099	1466.525879	1249.079590	41.863132
228.681824	1092.006348	1543.460083	1274.824707	40.495480
229.062134	1095.339966	1631.212891	1308.742920	39.823425
229.442413	1095.404419	1713.438232	1339.198242	39.446682
229.822647	1099.469604	1782.349976	1362.878662	38.573235
230.202881	1100.846069	1832.011841	1380.149536	38.199745
230.583054	1100.674072	1871.651245	1392.946777	37.909386
230.963196	1098.372681	1904.106934	1403.163086	37.827660
231.343292	1097.576782	1930.819946	1411.228638	37.642296
231.723404	1097.146606	1946.348755	1416.132446	37.563004
232.103439	1098.372681	1940.670654	1414.734375	37.559357
232.483459	1098.630737	1913.054321	1403.915894	37.484814
232.863434	1096.802612	1867.650757	1384.494141	37.321426
233.243393	1091.662109	1814.934814	1361.222412	37.269524
233.623306	1092.909668	1767.294434	1341.585571	36.874485
234.003174	1092.242920	1737.763672	1328.594727	36.614128
234.383041	1089.382324	1724.880371	1323.303833	36.809162
234.762848	1090.930786	1717.675293	1319.797974	36.516823
235.142639	1091.855591	1711.932495	1318.098877	36.486328
235.522385	1094.135498	1708.491089	1315.431763	36.020874
235.902115	1095.834839	1710.212036	1312.420654	35.252907
236.281799	1095.641113	1716.384766	1314.119629	35.196255
236.661438	1096.178833	1729.009888	1316.851318	34.870678
237.041077	1095.576660	1740.946899	1321.540161	35.013004
237.420654	1098.458618	1747.033569	1323.798584	34.743858
237.800217	1097.963989	1755.550659	1324.658813	34.473755
238.179733	1098.351074	1761.530029	1327.540894	34.559273
238.559219	1100.372925	1769.509644	1329.218506	34.200123
238.938690	1098.265137	1782.220703	1330.853027	34.006287
239.318100	1096.630493	1800.158325	1332.487671	33.524925
239.697510	1097.017578	1821.687988	1338.187378	33.279930
240.076859	1097.168091	1847.260986	1346.080811	33.184254
240.456177	1098.178955	1891.976440	1356.684204	32.565643
240.835464	1096.651855	1948.263184	1375.955444	32.797073
241.214722	1097.275757	2024.745728	1398.560425	32.484573
241.593948	1097.963989	2132.092285	1430.005127	32.108311
241.973129	1097.856567	2259.333740	1469.988647	32.039551
242.352295	1097.297363	2406.750000	1513.391846	31.776215
242.731415	1097.856323	2553.327148	1555.612183	31.450706
243.110519	1095.877686	2674.417480	1592.885620	31.485296
243.489578	1095.877686	2769.440186	1620.996582	31.377310
243.868607	1096.049805	2835.943115	1643.773560	31.480307
244.247604	1097.684448	2886.035156	1654.248047	31.121614
244.626541	1098.910278	2917.953125	1662.744019	30.996178
245.005493	1099.792114	2945.719727	1667.669067	30.763771
245.384369	1100.114868	2970.948975	1671.863159	30.561144
245.763229	1100.609497	2998.909180	1680.616821	30.554045
246.142059	1102.760254	3052.937500	1695.908691	30.415104
246.520859	1102.351685	3154.261475	1723.890991	30.290773
246.899612	1100.889038	3308.366943	1769.359009	30.282066
247.278336	1101.942993	3494.518799	1822.935547	30.134577
247.657043	1102.394653	3664.540039	1873.070679	30.079323
248.035690	1101.405273	3803.309570	1912.839111	30.031923
248.414322	1100.867676	3921.002197	1950.241455	30.118200
248.792908	1099.297607	4008.367432	1979.277344	30.249523
249.171478	1099.835205	4061.642822	1993.902832	30.186554
249.550003	1101.104126	4068.827148	1998.355103	30.233648
249.928482	1100.588013	4035.661621	1987.085083	30.203571
250.306961	1099.620117	3942.724854	1956.823120	30.150244
250.685364	1099.362061	3780.747803	1907.311646	30.131792
251.063782	1100.652466	3577.324951	1848.013794	30.176027
251.442123	1101.168701	3379.536865	1792.071411	30.324453
251.820450	1102.416138	3241.261963	1752.625732	30.400023
252.198761	1102.201050	3168.177490	1730.300415	30.402056
252.576996	1101.276245	3111.740479	1715.847168	30.568607
252.955246	1101.921509	3063.153809	1700.124634	30.501390
253.333420	1101.039673	3017.792969	1686.553223	30.547152
253.711578	1100.437500	2990.306152	1677.842285	30.552641
254.089706	1100.308472	2965.872803	1670.830566	30.581743
254.467804	1098.716675	2948.537354	1666.894653	30.715300
254.845871	1099.856567	2933.202148	1664.292114	30.787188
255.223877	1098.996338	2907.005371	1655.860962	30.799881
255.601898	1100.480347	2870.334229	1643.816528	30.699493
255.979828	1098.265137	2818.026367	1625.319580	30.646955
256.357727	1098.630737	2763.826172	1606.650757	30.508131
256.735657	1098.480225	2741.457764	1597.101196	30.348618
257.113525	1098.071411	2758.492432	1601.144653	30.297934
257.491333	1098.480347	2812.197754	1616.479736	30.226652
257.869110	1097.835083	2891.799072	1640.826904	30.267710
258.246887	1097.684448	3007.146729	1674.615967	30.214344
258.624573	1097.232788	3174.092285	1721.396118	30.053230
259.002289	1097.275757	3402.142090	1785.145996	29.844259
259.379944	1098.566284	3704.265625	1872.210571	29.690468
259.757538	1098.415649	4068.052490	1977.320435	29.596375
260.135162	1099.318970	4428.032715	2082.924805	29.549126
260.512665	1100.760010	4715.939453	2164.246826	29.417263
260.890228	1099.792114	4904.715332	2218.597656	29.404154
261.267700	1101.147095	5016.622070	2250.623291	29.357260
261.645142	1101.942871	5083.039063	2269.765381	29.334194
262.022552	1103.211914	5120.677734	2279.938721	29.290276
262.399994	1102.717285	5125.904297	2278.454590	29.224028
262.777313	1103.857178	5080.715820	2263.334229	29.155602
263.154602	1104.911011	4961.216309	2227.286865	29.104954
263.531921	1102.824707	4760.159180	2165.343994	29.051739
263.909149	1102.459106	4480.791504	2080.924805	28.962978
264.286377	1101.491333	4192.583984	1994.957031	28.904526
264.663574	1099.878174	3972.277100	1930.131714	28.904535
265.040710	1101.921509	3845.767090	1890.320313	28.733351
265.417816	1099.168457	3795.782227	1870.425415	28.600943
265.794891	1099.340576	3797.803955	1867.951904	28.483297
266.171936	1099.104004	3841.508057	1871.328491	28.158669
266.548950	1099.921265	3899.708740	1885.136719	28.045536
266.925934	1101.383789	3954.425049	1900.235474	28.000004
267.302887	1100.329834	4020.368896	1916.667603	27.956398
267.679810	1102.308594	4091.776367	1933.013794	27.787729
268.056671	1102.652710	4176.216797	1953.510864	27.683111
268.433502	1101.749512	4266.658203	1975.922241	27.620789
268.810333	1101.684814	4350.517578	1995.989136	27.526943
269.187073	1099.039429	4426.677734	2013.626099	27.484558
269.563843	1101.362305	4488.276855	2030.273315	27.426468
269.940521	1100.588013	4541.895996	2042.274658	27.364206
270.317200	1099.899780	4605.710449	2057.114990	27.303679
270.693848	1099.146973	4713.035645	2083.526855	27.238800
271.070435	1097.705933	4884.304199	2123.058594	27.078465
271.447021	1095.856323	5082.371582	2169.537598	26.932829
271.823547	1093.920532	5251.705078	2216.059570	26.988869
272.200043	1092.931152	5382.043457	2252.730713	27.040550
272.576538	1096.501465	5496.100098	2281.659180	26.937860
272.952972	1096.630493	5606.415527	2311.039063	26.928303
273.329346	1099.641602	5698.835449	2333.859131	26.835518
273.705688	1097.490723	5766.155762	2351.775391	26.866024
274.082062	1094.221558	5809.837891	2363.239258	26.910963
274.458344	1094.049438	5806.568848	2365.863037	26.987974
274.834595	1093.060059	5748.755371	2353.152100	27.065603
275.210846	1093.748413	5652.141113	2323.556641	26.978989
275.587006	1095.361572	5538.041016	2296.327637	27.032471
275.963165	1096.135864	5473.688965	2274.088135	26.908920
276.339294	1095.920898	5444.265625	2260.495117	26.782013
276.715393	1094.329224	5440.265137	2254.515869	26.695898
277.091461	1093.942017	5437.361816	2253.892090	26.705915
277.467438	1092.931152	5444.867676	2255.182617	26.706535
277.843445	1094.372192	5460.289551	2259.140137	26.678652
278.219452	1097.361816	5481.604004	2264.452637	26.620127
278.595337	1097.275757	5513.521484	2266.001221	26.464231
278.971191	1097.318726	5547.805664	2268.926270	26.325380
279.347046	1096.716553	5572.969727	2278.045898	26.391031
279.722870	1095.727051	5607.189453	2280.325439	26.257526
280.098663	1096.953125	5631.234863	2286.713623	26.239227
280.474396	1098.222168	5683.004883	2297.273926	26.152859
280.850098	1099.727539	5749.679688	2315.921631	26.154982
281.225800	1099.770630	5852.595703	2335.945313	26.009260
281.601440	1099.125488	5983.816895	2367.884766	25.974195
281.977051	1098.996338	6153.665527	2407.265869	25.882399
282.352600	1100.265503	6314.695801	2443.721924	25.764204
282.728149	1102.996948	6448.454590	2479.210205	25.745472
283.103668	1104.007935	6547.198242	2504.310059	25.725760
283.479156	1102.588379	6633.079590	2526.441650	25.745512
283.854553	1102.502319	6720.380859	2552.488037	25.810202
284.229950	1098.480347	6819.877930	2577.437500	25.849579
284.605347	1096.501587	6916.750000	2599.870605	25.829979
284.980652	1094.888428	7007.728516	2620.604004	25.803431
285.355988	1092.500977	7095.331055	2644.585693	25.855883
285.731201	1094.243042	7173.210938	2661.706055	25.785019
286.106445	1094.888428	7234.551758	2674.223633	25.723484
286.481659	1094.802368	7309.464355	2690.419434	25.675041
286.856781	1091.490112	7380.248047	2702.915771	25.623911
287.231934	1093.942017	7436.878418	2712.723389	25.521009
287.607025	1097.254272	7468.667480	2719.562988	25.462307
287.982056	1100.114868	7471.699707	2717.003418	25.376553
288.357086	1103.577637	7457.009766	2707.797852	25.249662
288.732086	1104.201294	7427.049805	2698.786133	25.219406
289.107025	1104.373413	7399.476563	2687.236084	25.144348
289.481934	1106.137085	7369.988770	2674.374512	25.036312
289.856842	1104.395020	7367.579590	2671.578369	25.022148
290.231659	1103.276611	7383.409668	2672.438721	24.986130
290.606506	1102.717407	7399.583984	2672.546143	24.930315
290.981262	1104.029419	7420.532715	2679.837402	24.947474
291.355988	1103.341064	7460.408203	2691.860352	24.988241
291.730713	1101.276245	7499.531250	2699.194336	24.974279
292.105377	1100.996582	7523.040527	2708.034180	25.023771
292.480011	1102.115112	7531.126953	2717.562500	25.127460
292.854614	1101.340698	7544.418945	2725.434082	25.206793
293.229187	1102.093628	7573.949707	2739.135010	25.294775
293.603729	1104.115356	7617.632324	2759.352539	25.412342
293.978241	1103.771240	7652.840332	2779.677490	25.589991
294.352692	1101.964478	7681.683105	2798.432617	25.783293
294.727081	1101.061035	7708.525391	2823.209961	26.063688
295.101501	1098.609253	7761.865234	2850.181152	26.287027
295.475830	1095.512085	7848.133301	2887.131836	26.532211
295.850189	1095.038940	7991.893555	2944.300293	26.813112
296.224457	1091.683716	8203.381836	3015.621094	27.053135
296.598694	1089.403809	8463.350586	3101.739014	27.289799
296.972931	1089.016602	8729.597656	3190.954590	27.510185
297.347107	1088.586426	8935.946289	3270.254150	27.801296
297.721283	1087.898071	9061.037109	3320.733643	28.004471
298.095367	1089.769409	9098.051758	3345.016602	28.161434
298.469452	1092.737427	9080.931641	3357.340576	28.349373
298.843475	1092.199707	9037.636719	3356.802979	28.501934
299.217529	1094.587158	8972.337891	3350.264648	28.633522
299.591492	1096.436890	8892.672852	3332.197754	28.677439
299.965424	1098.135864	8774.442383	3306.775635	28.772165
300.339325	1102.179565	8594.958008	3263.695068	28.847986
300.713196	1103.513062	8374.263672	3209.300781	28.962452
301.087036	1105.448730	8138.126465	3148.648193	29.052937
301.460815	1104.975586	7937.585938	3087.823486	29.020357
301.834564	1103.771118	7774.533203	3042.419678	29.061874
302.208282	1103.125854	7649.119141	3005.791504	29.066111
302.582001	1103.297974	7531.814453	2972.647949	29.079025
302.955658	1103.297974	7423.306641	2943.310791	29.114086
303.329254	1100.889038	7332.241699	2922.534180	29.233543
303.702820	1101.276245	7248.747070	2907.629150	29.383677
304.076416	1100.910645	7176.007813	2887.067627	29.401291
304.449921	1099.491089	7122.452637	2869.796631	29.392611
304.823395	1099.749146	7062.165527	2849.622070	29.348385
305.196838	1099.426636	7003.878418	2830.823975	29.323593
305.570251	1097.921021	6932.858887	2812.477539	29.384314
305.943604	1096.479980	6870.485840	2796.991943	29.451164
306.316986	1096.350952	6825.146973	2785.700195	29.488731
306.690277	1094.759399	6800.218750	2774.881592	29.447622
307.063507	1094.200073	6800.971680	2772.558594	29.409948
307.436768	1095.038940	6830.372070	2774.085693	29.275488
307.809937	1092.328979	6880.078125	2782.086670	29.195421
308.183136	1093.081665	6951.484375	2796.948975	29.084162
308.556244	1091.640747	7039.259277	2821.338867	29.082195
308.929321	1092.802002	7145.702637	2846.890381	28.979303
309.302399	1091.963379	7244.488770	2874.872070	28.978485
309.675446	1093.597778	7353.104492	2902.832764	28.903795
310.048401	1095.167969	7449.568359	2931.352051	28.896261
310.421356	1093.662354	7553.624512	2959.872070	28.888866
310.794281	1094.049438	7670.606445	2989.101318	28.815258
311.167145	1096.264771	7784.168945	3021.385010	28.785105
311.539978	1100.437378	7864.242676	3044.377197	28.740328
311.912781	1102.588135	7910.098145	3056.142090	28.697042
312.285553	1101.147095	7899.667480	3055.840820	28.751751
312.658295	1102.308472	7851.940430	3041.129150	28.724836
313.031006	1101.254639	7786.728027	3028.052979	28.820671
313.403656	1101.792358	7728.354980	3010.437500	28.802944
313.776276	1101.663208	7684.435547	2997.855469	28.805374
314.148865	1102.029053	7688.415527	2991.316650	28.684736
314.521454	1105.040161	7694.351563	2989.037354	28.591715
314.893982	1103.147583	7677.596680	2987.338135	28.659292
315.266449	1101.018311	7620.212891	2966.152588	28.609890
315.638885	1095.899292	7539.772949	2945.117920	28.697313
316.011322	1094.544189	7452.429199	2921.286865	28.731924
316.383667	1094.759277	7385.065430	2901.198242	28.717823
316.756042	1094.458130	7327.316895	2885.303711	28.732330
317.128326	1094.049561	7277.848145	2865.279541	28.643072
317.500610	1094.329102	7220.959473	2847.772217	28.620024
317.872833	1094.157104	7145.443848	2826.113525	28.621292
318.245087	1094.608643	7047.453613	2795.980713	28.580824
318.617218	1093.468872	6948.925293	2771.913086	28.664618
318.989319	1094.780762	6877.604980	2755.868164	28.724501
319.361420	1097.684448	6835.212402	2745.114258	28.713234
319.733490	1100.889160	6807.423828	2733.478271	28.609116
320.105530	1099.792114	6786.690430	2725.154541	28.580824
320.477509	1100.566528	6764.343750	2716.013916	28.522438
320.849457	1101.512817	6742.125488	2711.497070	28.542719
321.221375	1099.899780	6731.974609	2704.356445	28.487844
321.593231	1100.200806	6729.565430	2702.399414	28.461447
321.965088	1100.802979	6731.823242	2701.044678	28.418325
322.336884	1102.459106	6746.857422	2706.572021	28.419556
322.708618	1100.265381	6786.432617	2710.120850	28.311787
323.080414	1101.254761	6844.159668	2718.616455	28.162781
323.452118	1102.179565	6947.871582	2745.114258	28.105051
323.823761	1099.899658	7085.007324	2780.150635	28.073866
324.195343	1102.846313	7229.239258	2817.424072	27.986740
324.566925	1101.061035	7372.160645	2855.084717	27.969954
324.938507	1099.189941	7509.081055	2886.636963	27.885763
325.310059	1099.964355	7620.814453	2916.619385	27.859175
325.681519	1099.663208	7736.399902	2945.655273	27.814754
326.052948	1098.802856	7852.091797	2971.443604	27.729315
326.424408	1094.458130	7916.723145	2988.069336	27.756342
326.795776	1097.275757	7936.703613	2993.145264	27.719709
327.167084	1095.705688	7906.787109	2980.992920	27.679705
327.538391	1093.490356	7825.529785	2954.517090	27.644323
327.909668	1095.296997	7721.903320	2922.728027	27.577177
328.280884	1095.813232	7621.073730	2893.691650	27.552591
328.652100	1096.802734	7529.922363	2865.946289	27.500555
329.023254	1097.856445	7453.332520	2840.523926	27.419935
329.394348	1098.200562	7390.443359	2822.994873	27.411440
329.765442	1097.834839	7310.196777	2803.465576	27.455431
330.136475	1098.351074	7226.937988	2781.763916	27.468204
330.507538	1099.878174	7159.510742	2759.696777	27.391405
330.878479	1097.619873	7106.687500	2745.888428	27.429689
331.249420	1098.673706	7078.705078	2739.844727	27.444187
331.620331	1097.168091	7080.082520	2744.361572	27.531624
331.991211	1096.092896	7099.223633	2749.523438	27.542803
332.362030	1094.716309	7135.120605	2759.008545	27.552664
332.732819	1093.877441	7177.190430	2773.978271	27.618189
333.103577	1092.888184	7218.851074	2788.732666	27.682905
333.474304	1093.103271	7245.328125	2796.841064	27.693037
333.845001	1093.103271	7266.728516	2800.626465	27.658356
334.215668	1095.318481	7282.107422	2809.122070	27.701019
334.586273	1096.221802	7310.819824	2822.371094	27.775719
334.956818	1097.490845	7336.048340	2831.490479	27.794880
335.327362	1096.437012	7358.523926	2841.384277	27.865267
335.697876	1099.534058	7373.127930	2844.051270	27.807302
336.068329	1099.964355	7380.677734	2848.826172	27.844955
336.438751	1099.964233	7374.892578	2852.009521	27.921360
336.809174	1103.233521	7369.923828	2848.890869	27.856129
337.179504	1103.018433	7381.000000	2855.429443	27.913607
337.549896	1103.469971	7413.283203	2863.838867	27.898905
337.920135	1105.814331	7465.849609	2877.130859	27.850735
338.290375	1104.115234	7520.394043	2893.455322	27.887505
338.660614	1103.835815	7566.679688	2905.177490	27.872276
339.030792	1104.975708	7605.523438	2916.834717	27.872404
339.400940	1107.556641	7646.431152	2927.932617	27.839287
339.771027	1106.309204	7679.596680	2938.794189	27.877754
340.141083	1106.825317	7714.590820	2948.903076	27.877468
340.511139	1107.965210	7751.798828	2954.925293	27.799614
340.881134	1105.642456	7796.600098	2969.163574	27.851337
341.251068	1105.599243	7825.829590	2974.604980	27.811632
341.621002	1104.373291	7840.841797	2984.133057	27.904230
341.990875	1101.233154	7849.101563	2990.112305	27.992235
342.360718	1099.964233	7858.995117	2991.897461	27.991192
342.730560	1100.136230	7879.062012	2998.758545	28.007717
343.100311	1097.834961	7921.325195	3008.953125	28.007927
343.470032	1097.383301	7984.279297	3027.471924	28.025522
343.839752	1097.125122	8068.074707	3052.206055	28.046120
344.209442	1098.028564	8161.526855	3080.704102	28.069315
344.579041	1096.523071	8264.938477	3111.890869	28.114550
344.948639	1095.813232	8365.853516	3140.388916	28.123306
345.318176	1098.845825	8455.262695	3169.166992	28.143066
345.687714	1098.286621	8552.909180	3195.363525	28.131229
346.057190	1098.200562	8625.068359	3216.161865	28.138683
346.426636	1100.136230	8678.581055	3235.239746	28.173372
346.796051	1099.297363	8703.013672	3246.359375	28.237009
347.165405	1099.985596	8698.797852	3250.918945	28.306177
347.534729	1099.598633	8657.610352	3241.111084	28.334335
347.904083	1099.770752	8593.752930	3226.743652	28.382412
348.273315	1099.211426	8511.786133	3207.666260	28.444298
348.642517	1099.491089	8436.227539	3191.019287	28.507612
349.011719	1099.749146	8361.422852	3173.554688	28.558231
349.380890	1096.781006	8308.834961	3159.337646	28.598742
349.749969	1097.942505	8260.614258	3148.970459	28.634954
350.119049	1101.147217	8238.375977	3148.110352	28.680084
350.488098	1102.308716	8235.384766	3147.809326	28.676275
350.857117	1103.534668	8238.632813	3152.368896	28.714870
351.226074	1102.179565	8268.012695	3161.273438	28.734882
351.595001	1102.910889	8313.008789	3174.887695	28.737154
351.963867	1102.910889	8365.336914	3191.492188	28.758728
352.332764	1099.813721	8432.206055	3210.548584	28.786442
352.701538	1099.146973	8501.246094	3231.798340	28.811440
353.070343	1100.738525	8591.322266	3259.866455	28.824560
353.439056	1100.867676	8685.075195	3291.160400	28.879652
353.807770	1101.233276	8792.744141	3323.465820	28.892015
354.176453	1100.243896	8898.822266	3355.319336	28.916494
354.545105	1096.781128	9022.581055	3392.399170	28.963867
354.913666	1096.931641	9173.868164	3437.716309	28.981094
355.282227	1098.652344	9334.511719	3487.873291	29.009977
355.650757	1095.770264	9501.285156	3541.793701	29.100222
356.019226	1095.899292	9686.339844	3594.187256	29.082188
356.387695	1097.275757	9897.461914	3657.420898	29.091940
356.756104	1097.727417	10147.257813	3734.333496	29.135281
357.124451	1096.458496	10424.130859	3813.849121	29.132570
357.492828	1095.856201	10681.905273	3894.052490	29.190298
357.861084	1096.716553	10896.963867	3961.114258	29.227812
358.229401	1096.436890	11065.134766	4008.088135	29.207939
358.597595	1100.028687	11179.878906	4043.898682	29.205494
358.965759	1098.308105	11285.785156	4074.031494	29.209621
359.333923	1097.576904	11397.927734	4110.444824	29.250149
359.702057	1099.770630	11556.829102	4158.106445	29.246618
360.070129	1098.329590	11736.874023	4219.684082	29.340052
360.438141	1100.695435	11947.889648	4289.606934	29.398493
360.806122	1102.717163	12195.875977	4364.283203	29.401596
361.174133	1104.502441	12475.975586	4457.584961	29.486792
361.542053	1106.201660	12787.734375	4549.983887	29.480568
361.909912	1104.782104	13059.295898	4635.133789	29.531536
362.277771	1104.072266	13289.452148	4708.970703	29.583799
362.645599	1102.523560	13435.535156	4753.900879	29.606535
363.013367	1101.684937	13487.328125	4771.645020	29.630756
363.381134	1101.878540	13454.527344	4762.504395	29.634340
363.748810	1100.824707	13341.522461	4734.436035	29.684675
364.116455	1101.792480	13151.778320	4684.301270	29.730396
364.484100	1100.136353	12877.100586	4601.366211	29.729479
364.851715	1097.426270	12500.042969	4489.803711	29.750866
365.219238	1095.641113	12017.209961	4346.517090	29.765652
365.586761	1094.071167	11496.714844	4195.250488	29.811453
365.954224	1092.587036	11045.755859	4058.868164	29.802380
366.321686	1092.113770	10687.518555	3953.306396	29.818365
366.689117	1093.275269	10452.758789	3884.394775	29.821301
367.056458	1096.824097	10290.286133	3838.604492	29.823154
367.423737	1097.533936	10172.636719	3801.825928	29.799025
367.791077	1098.630859	10063.891602	3763.649414	29.726057
368.158295	1099.362061	9978.162109	3734.527344	29.679296
368.525543	1099.899658	9899.936523	3712.782715	29.691729
368.892700	1102.222534	9826.788086	3691.231445	29.674931
369.259827	1103.233521	9775.147461	3675.767090	29.665119
369.626953	1104.567017	9742.949219	3666.045410	29.652296
369.994019	1105.083130	9712.256836	3659.356445	29.676100
370.361053	1105.814453	9696.125977	3652.882568	29.650475
370.728027	1104.201294	9690.146484	3651.656494	29.670059
371.094971	1102.545166	9704.665039	3655.743652	29.681038
371.461914	1099.792114	9732.152344	3669.228760	29.765167
371.828796	1099.964355	9764.951172	3681.854004	29.796812
372.195618	1099.383545	9808.225586	3695.103271	29.805567
372.562408	1099.598633	9839.046875	3705.018555	29.812180
372.929199	1098.867310	9875.116211	3721.020508	29.877836
373.295898	1096.544434	9908.454102	3734.806885	29.939734
373.662598	1097.576782	9953.125977	3747.927246	29.928699
374.029236	1098.093018	9996.227539	3765.348389	29.975443
374.395844	1098.802856	10033.027344	3780.210205	30.012758
374.762421	1100.566528	10077.097656	3800.191650	30.074257
375.128967	1099.555542	10134.545898	3821.893066	30.131050
375.495483	1103.448608	10215.415039	3848.154053	30.121988
375.861908	1101.125854	10344.572266	3892.267334	30.195898
376.228333	1100.609497	10513.862305	3943.886719	30.205046
376.594727	1098.265137	10751.439453	4021.595215	30.283615
376.961090	1097.770386	11016.181641	4108.143555	30.351364
377.327393	1101.211792	11269.352539	4188.088867	30.358322
377.693665	1099.620117	11461.527344	4249.645020	30.400049
378.059906	1100.243896	11601.781250	4294.446289	30.416523
378.426086	1101.190186	11685.490234	4330.472168	30.510115
378.792267	1100.781494	11717.967773	4343.205078	30.539387
379.158386	1100.200806	11706.439453	4345.678711	30.599709
379.524445	1098.006958	11674.457031	4338.989746	30.643391
379.890503	1099.964233	11605.610352	4323.632813	30.685102
380.256531	1100.996582	11494.047852	4298.705078	30.767756
380.622467	1102.953857	11331.468750	4258.527832	30.850756
380.988403	1103.255005	11130.669922	4201.402344	30.896770
381.354279	1101.104126	10936.257813	4146.879395	30.968256
381.720154	1099.426636	10784.260742	4110.638184	31.092030
382.085968	1100.738525	10692.442383	4088.442139	31.148830
382.451752	1099.491089	10663.148438	4082.463135	31.190706
382.817474	1100.028809	10677.924805	4099.002930	31.311407
383.183197	1101.512939	10747.503906	4130.125000	31.397625
383.548859	1101.211792	10817.749023	4166.107910	31.543089
383.914490	1099.491211	10895.329102	4196.692383	31.617521
384.280060	1099.276123	10966.520508	4228.868164	31.716982
384.645599	1098.802856	11036.163086	4254.161133	31.752480
385.011108	1096.781128	11120.754883	4291.348633	31.869272
385.376617	1095.426147	11219.089844	4332.859375	31.978867
385.742035	1095.684082	11332.500977	4378.607422	32.069767
386.107452	1093.361328	11437.826172	4425.903320	32.215702
386.472778	1093.210815	11530.417969	4466.983398	32.324474
386.838135	1090.823364	11626.559570	4507.418457	32.428631
387.203430	1090.328735	11692.825195	4536.368164	32.502155
387.568634	1089.446777	11741.561523	4565.705078	32.634441
387.933838	1091.296509	11771.308594	4593.386230	32.791069
388.299042	1091.855713	11806.624023	4615.367676	32.884628
388.664124	1089.403809	11833.939453	4641.026855	33.055157
389.029236	1092.931152	11843.661133	4661.136719	33.190353
389.394318	1094.114136	11856.931641	4682.128418	33.337128
389.759308	1094.157104	11859.254883	4701.614746	33.510681
390.124298	1094.415161	11897.474609	4731.812012	33.670063
390.489227	1096.178833	11985.441406	4780.549316	33.834896
390.854126	1096.350830	12100.639648	4836.190430	33.985291
391.218964	1097.748901	12246.528320	4910.887695	34.202297
391.583771	1097.641479	12404.568359	4979.907227	34.335285
391.948578	1094.372192	12542.930664	5050.453613	34.555279
392.313354	1092.436401	12655.502930	5111.450684	34.757339
392.678040	1094.522705	12759.365234	5161.370605	34.864147
393.042694	1091.554565	12871.121094	5215.613770	35.010281
393.407349	1093.705322	12997.244141	5278.267090	35.153927
393.771942	1094.630371	13137.218750	5347.092285	35.311863
394.136505	1093.985107	13233.640625	5403.508301	35.499554
394.501007	1091.145996	13250.416016	5431.920898	35.699306
394.865479	1092.113770	13191.269531	5433.641113	35.882893
395.229919	1090.715820	13059.208984	5404.777344	36.045151
395.594360	1094.264771	12900.953125	5373.569336	36.244751
395.958710	1098.007080	12755.558594	5329.908203	36.301804
396.323029	1098.953491	12622.725586	5296.032715	36.421051
396.687286	1099.254517	12495.181641	5275.793457	36.649403
397.051544	1100.932129	12373.447266	5251.124023	36.816910
397.415771	1098.888794	12218.524414	5217.055176	37.035084
397.779938	1099.426636	12045.384766	5171.415039	37.200840
398.144043	1100.803101	11876.718750	5123.107910	37.326801
398.508148	1099.383545	11731.345703	5088.479980	37.519852
398.872192	1099.039429	11617.761719	5065.810059	37.711521
399.236237	1099.297485	11542.204102	5055.701172	37.886040
399.600189	1097.060669	11490.456055	5055.056641	38.081837
399.964111	1095.920776	11451.311523	5066.197266	38.340191
400.328003	1094.866943	11420.555664	5075.725586	38.552959
400.691925	1093.081787	11410.338867	5088.694824	38.727474
401.055695	1093.554932	11395.217773	5099.879395	38.890076
401.419495	1093.404297	11390.186523	5116.676758	39.073105
401.783234	1092.522583	11416.532227	5140.335449	39.207760
402.146942	1093.490356	11432.211914	5164.123535	39.372696
402.510620	1096.071167	11475.981445	5195.762207	39.496399
402.874237	1096.910034	11545.322266	5241.811035	39.670151
403.237823	1097.942505	11646.604492	5299.043457	39.825912
403.601379	1097.899536	11783.717773	5364.062500	39.923595
403.964874	1097.598389	11953.416016	5440.394043	40.004318
404.328369	1098.845825	12137.160156	5531.997070	40.161488
404.691772	1101.899902	12298.964844	5615.082520	40.306839
405.055176	1100.394409	12461.372070	5696.834961	40.458141
405.418549	1100.760010	12608.122070	5763.854004	40.522697
405.781860	1100.953613	12710.436523	5818.828613	40.638115
406.145142	1100.372925	12804.383789	5872.404785	40.772621
406.508362	1096.910034	12858.259766	5907.011230	40.897526
406.871552	1096.071289	12872.971680	5927.186035	41.021954
407.234741	1095.533569	12855.744141	5929.100586	41.101021
407.597870	1096.286377	12795.436523	5919.550293	41.227470
407.960938	1099.082397	12714.909180	5905.893555	41.381565
408.323975	1098.759766	12628.490234	5875.480957	41.429600
408.686981	1099.318970	12567.297852	5856.897949	41.485767
409.049957	1099.405029	12529.293945	5851.456543	41.575661
409.412903	1100.050293	12531.552734	5867.329102	41.702995
409.775787	1099.942749	12562.309570	5896.623047	41.847202
410.138611	1100.652466	12608.766602	5930.218262	41.966614
410.501434	1103.900269	12662.795898	5968.180176	42.082565
410.864227	1104.609985	12703.165039	6001.109375	42.216461
411.226929	1104.502441	12739.277344	6033.930176	42.368053
411.589630	1104.696045	12787.863281	6062.815430	42.438145
411.952271	1103.835815	12802.446289	6080.904297	42.544098
412.314911	1103.083008	12808.704102	6106.670410	42.745167
412.677490	1101.577393	12819.889648	6128.393555	42.897102
413.040009	1104.545532	12832.342773	6142.932617	42.961071
413.402496	1102.523682	12817.157227	6144.675293	43.041477
413.764984	1102.652832	12790.637695	6139.384277	43.093243
414.127380	1100.953613	12777.344727	6135.555176	43.117790
414.489777	1100.329956	12783.412109	6145.062500	43.179810
414.852112	1101.104248	12831.394531	6161.451172	43.139145
415.214386	1100.932129	12908.696289	6195.627930	43.146999
415.576660	1100.222290	13008.063477	6243.676758	43.193848
415.938904	1098.695190	13161.844727	6308.136230	43.184750
416.301086	1101.211792	13343.672852	6377.241699	43.096153
416.663208	1101.512817	13534.774414	6453.487793	43.045624
417.025299	1097.964111	13747.102539	6544.573730	43.059132
417.387390	1097.641479	13993.647461	6650.135742	43.055920
417.749420	1097.383301	14281.855469	6777.958008	43.085339
418.111389	1097.576904	14608.261719	6921.050293	43.102730
418.473328	1096.738037	14982.374023	7077.437012	43.071121
418.835266	1094.673340	15378.788086	7248.316895	43.080326
419.197144	1096.781128	15816.389648	7443.546387	43.117760
419.558960	1096.092896	16293.288086	7651.701172	43.136963
419.920746	1095.684204	16814.921875	7889.966797	43.222725
420.282471	1095.899292	17418.888672	8164.387695	43.303883
420.644226	1094.608887	18049.289063	8451.046875	43.388836
421.005920	1092.393433	18652.761719	8727.725586	43.480476
421.367523	1092.909668	19205.388672	8984.833984	43.571751
421.729126	1092.436401	19689.105469	9209.420898	43.647514
422.090668	1091.640503	20103.029297	9408.434570	43.746380
422.452179	1092.414917	20437.283203	9578.864258	43.869251
422.813660	1092.156860	20766.935547	9750.541992	44.007530
423.175110	1089.382324	21078.695313	9910.561523	44.129478
423.536469	1089.016724	21354.472656	10056.730469	44.251232
423.897858	1088.328369	21574.929688	10173.454102	44.346672
424.259155	1086.242065	21651.544922	10237.850586	44.500237
424.620453	1086.134644	21666.791016	10268.305664	44.615540
424.981689	1091.188965	21630.486328	10282.155273	44.748207
425.342865	1092.092285	21562.048828	10277.273438	44.871525
425.704041	1091.769653	21472.617188	10265.788086	45.012939
426.065186	1093.769775	21369.960938	10241.699219	45.116608
426.426239	1094.565674	21230.953125	10195.027344	45.194115
426.787262	1096.522949	20996.988281	10095.832031	45.221600
427.148254	1096.888672	20678.130859	9966.675781	45.297367
427.509216	1098.028442	20293.246094	9807.408203	45.372658
427.870178	1098.222046	19842.652344	9615.211914	45.437447
428.231049	1097.942383	19410.876953	9422.005859	45.454559
428.591858	1100.179321	18984.113281	9231.616211	45.467834
428.952698	1098.910278	18575.439453	9045.291992	45.468880
429.313446	1099.189941	18204.597656	8876.368164	45.466194
429.674164	1101.985962	17855.242188	8719.016602	45.465973
430.034851	1101.147217	17533.355469	8567.383789	45.436596
430.395477	1100.244019	17253.707031	8441.540039	45.447197
430.756104	1099.297607	17029.400391	8351.506836	45.525188
431.116699	1097.297241	16851.013672	8266.852539	45.510246
431.477203	1095.727295	16712.544922	8206.909180	45.535408
431.837646	1097.318848	16644.773438	8180.347168	45.557476
432.198090	1098.243652	16616.832031	8177.099609	45.615337
432.558502	1095.619629	16627.585938	8198.091797	45.728092
432.918884	1095.641113	16653.998047	8225.578125	45.827057
433.279205	1094.049561	16710.177734	8267.625977	45.936970
433.639465	1093.533325	16786.314453	8319.589844	46.047012
433.999756	1095.060425	16865.056641	8377.532227	46.179287
434.359924	1097.211182	16953.216797	8435.431641	46.280384
434.720093	1097.899536	17034.044922	8490.148438	46.386681
435.080200	1099.641602	17095.513672	8544.413086	46.541828
435.440277	1101.211670	17160.146484	8597.172852	46.677822
435.800354	1099.275879	17185.830078	8641.134766	46.882996
436.160370	1097.340210	17192.820313	8669.074219	47.042610
436.520325	1099.189819	17192.820313	8693.764648	47.189941
436.880249	1098.265137	17205.078125	8720.133789	47.320774
437.240112	1098.050171	17215.617188	8747.405273	47.459736
437.599976	1098.265137	17262.482422	8790.121094	47.585701
437.959808	1097.662964	17333.457031	8854.429688	47.775715
438.319519	1096.350952	17413.857422	8926.352539	47.985279
438.679260	1091.145996	17536.646484	9019.117188	48.207542
439.038940	1092.586914	17707.978516	9126.614258	48.352924
439.398590	1092.414795	17931.275391	9264.331055	48.530098
439.758179	1092.866577	18226.859375	9424.415039	48.625847
440.117767	1095.124878	18574.494141	9621.622070	48.780350
440.477295	1095.490601	18934.453125	9824.378906	48.931591
440.836792	1095.920776	19279.357422	10026.576172	49.114231
441.196198	1098.867310	19575.050781	10199.027344	49.253464
441.555603	1098.544800	19804.392578	10343.217773	49.421299
441.914978	1098.265137	19959.164063	10453.231445	49.599792
442.274323	1098.738403	20082.167969	10530.983398	49.686729
442.633575	1103.728149	20140.388672	10583.914063	49.799625
442.992859	1103.685181	20138.429688	10606.928711	49.925774
443.352051	1103.384033	20087.412109	10598.775391	50.017792
443.711182	1105.491943	19969.117188	10568.665039	50.166248
444.070313	1103.921753	19825.337891	10517.282227	50.281242
444.429382	1103.771240	19678.630859	10459.339844	50.366833
444.788452	1103.448608	19573.458984	10427.572266	50.482506
445.147430	1101.641968	19542.746094	10429.550781	50.582165
445.506409	1097.963989	19594.320313	10470.331055	50.671425
445.865295	1094.264771	19736.939453	10550.448242	50.723324
446.224182	1092.888184	19956.279297	10683.754883	50.843815
446.583038	1093.899048	20226.097656	10830.052734	50.888836
446.941833	1092.630005	20505.294922	10993.901367	51.004189
447.300598	1093.597778	20762.875000	11147.317383	51.113823
447.659302	1091.877197	20991.054688	11276.214844	51.179691
448.018005	1093.791504	21158.558594	11375.624023	51.243214
448.376648	1093.597900	21260.806641	11441.160156	51.308849
448.735229	1096.652100	21288.230469	11459.676758	51.323498
449.093781	1098.157715	21246.203125	11456.773438	51.412510
449.452301	1100.308350	21122.595703	11406.360352	51.472900
449.810791	1103.577759	20923.970703	11317.101563	51.530380
450.169220	1103.900269	20623.998047	11172.567383	51.581028
450.527618	1102.373169	20295.289063	11015.214844	51.648441
450.885956	1103.706665	20003.423828	10867.992188	51.663658
451.244263	1103.771118	19716.507813	10732.598633	51.732464
451.602539	1104.781982	19494.673828	10623.704102	51.761703
451.960785	1104.480835	19310.414063	10538.917969	51.820675
452.318970	1108.094238	19172.310547	10475.555664	51.856445
452.677124	1104.609863	19023.412109	10417.354492	51.971912
453.035248	1104.222778	18869.242188	10346.787109	52.026764
453.393311	1105.599243	18696.167969	10266.412109	52.077980
453.751312	1104.695923	18529.070313	10186.230469	52.119713
454.109314	1107.212402	18388.814453	10122.500977	52.166977
454.467285	1109.169800	18245.613281	10058.300781	52.222801
454.825195	1108.739502	18072.367188	9977.903320	52.283417
455.183044	1109.943848	17904.023438	9887.246094	52.264267
455.540894	1106.545654	17691.955078	9784.502930	52.322838
455.898651	1106.674683	17504.232422	9689.308594	52.340923
456.256378	1101.856934	17306.982422	9595.749023	52.414852
456.614105	1103.061401	17179.052734	9527.696289	52.405071
456.971771	1104.050781	17093.775391	9478.141602	52.371700
457.329407	1101.749512	17093.128906	9473.733398	52.353111
457.686981	1101.684814	17167.417969	9518.791992	52.391678
458.044525	1099.598633	17346.685547	9624.655273	52.471294
458.402008	1099.189941	17633.281250	9782.459961	52.517365
458.759460	1098.458618	18066.625000	10013.864258	52.541950
459.116913	1096.329468	18630.761719	10315.385742	52.576878
459.474274	1098.286621	19308.283203	10673.128906	52.580143
459.831635	1098.630859	19928.597656	10998.073242	52.572807
460.188904	1098.738403	20480.904297	11288.302734	52.571857
460.546173	1098.587769	20918.871094	11527.342773	52.616577
460.903381	1097.684448	21253.000000	11714.484375	52.674934
461.260559	1098.093262	21482.876953	11847.360352	52.731823
461.617706	1101.082764	21610.376953	11915.799805	52.730808
461.974762	1100.803101	21586.716797	11903.215820	52.730930
462.331848	1099.017822	21431.537109	11828.217773	52.768669
462.688843	1099.856812	21097.753906	11657.938477	52.795963
463.045837	1099.856812	20608.511719	11413.542969	52.867237
463.402740	1100.028931	20001.488281	11105.440430	52.934597
463.759613	1098.759888	19425.611328	10813.662109	53.009117
464.116486	1099.017944	18915.269531	10559.543945	53.100544
464.473267	1100.222290	18506.187500	10344.097656	53.107513
464.830048	1099.899658	18187.908203	10182.099609	53.149555
465.186737	1101.491333	17932.179688	10052.750977	53.184158
465.543457	1098.910522	17749.082031	9961.427734	53.227783
465.900085	1096.135864	17683.847656	9929.295898	53.251232
466.256683	1093.877563	17708.130859	9940.328125	53.246147
466.613251	1093.081665	17779.880859	9987.151367	53.300034
466.969757	1092.156738	17868.923828	10042.104492	53.347267
467.326233	1092.974121	17954.439453	10091.013672	53.364517
467.682678	1093.468750	18007.349609	10128.889648	53.420151
468.039093	1094.329102	18032.878906	10143.277344	53.422211
468.395416	1091.554688	18023.759766	10145.966797	53.474499
468.751740	1089.511353	18002.896484	10144.741211	53.538837
469.108032	1089.511353	17967.236328	10133.750000	53.586834
469.464233	1089.877075	17925.876953	10117.920898	53.623451
469.820435	1095.770264	17833.671875	10081.313477	53.683807
470.176575	1097.533936	17685.136719	10017.176758	53.772942
470.532715	1099.340576	17518.494141	9930.133789	53.783482
470.888763	1103.470093	17376.755859	9858.856445	53.802204
471.244751	1103.190430	17260.076172	9809.021484	53.883102
471.600769	1103.534668	17199.617188	9783.383789	53.925232
471.956696	1104.029297	17199.033203	9794.827148	53.996868
472.312592	1104.717651	17266.589844	9847.887695	54.097507
472.668457	1105.964966	17356.882813	9905.831055	54.149963
473.024292	1107.126465	17486.939453	9986.140625	54.207054
473.380035	1106.954468	17572.779297	10046.017578	54.288589
473.735779	1106.007935	17660.789063	10106.779297	54.369617
474.091492	1104.953979	17747.638672	10160.033203	54.408760
474.447113	1102.179565	17866.193359	10246.753906	54.548836
474.802765	1098.394165	17964.505859	10317.364258	54.659721
475.158295	1098.587769	18087.423828	10397.073242	54.732918
475.513824	1099.491089	18213.548828	10485.191406	54.842049
475.869324	1098.114624	18362.341797	10582.859375	54.938721
476.224762	1098.781372	18489.732422	10664.417969	55.003529
476.580170	1100.007202	18638.607422	10768.839844	55.128876
476.935516	1099.082397	18791.574219	10881.499023	55.291344
477.290863	1099.469604	19031.796875	11038.357422	55.424412
477.646118	1096.867065	19283.615234	11197.795898	55.540051
478.001373	1097.533936	19573.435547	11389.152344	55.702927
478.356537	1098.609253	19855.857422	11575.971680	55.857674
478.711700	1100.501953	20156.970703	11771.500977	55.996727
479.066833	1099.254395	20462.707031	11970.730469	56.144306
479.421875	1097.555298	20789.414063	12184.456055	56.301949
479.776917	1098.544678	21111.562500	12408.527344	56.513130
480.131897	1098.222046	21482.617188	12665.849609	56.747467
480.486847	1097.146606	21913.056641	12947.603516	56.929806
480.841766	1098.781372	22435.853516	13282.764648	57.102413
481.196594	1098.953491	23050.208984	13675.802734	57.294441
481.551453	1098.093262	23857.900391	14174.056641	57.451996
481.906219	1095.211060	24897.945313	14823.663086	57.675945
482.260986	1094.479736	26347.199219	15720.872070	57.920071
482.615662	1092.135254	28416.939453	17023.419922	58.303383
482.970306	1093.640991	31148.205078	18825.363281	58.998436
483.324951	1093.619385	34243.640625	21027.937500	60.133656
483.679504	1092.673096	37399.925781	23357.324219	61.322872
484.034027	1092.113892	40339.859375	25472.507813	62.119221
484.388519	1091.597656	42912.027344	27242.320313	62.530975
484.742981	1089.898560	45000.953125	28646.281250	62.755001
485.097351	1088.586426	46633.558594	29746.955078	62.923233
485.451721	1092.759033	47805.765625	30573.914063	63.111233
485.806030	1096.501465	48616.898438	31185.843750	63.318790
486.160309	1096.114258	49095.046875	31595.812500	63.542450
486.514557	1098.135986	49099.496094	31738.101563	63.831451
486.868744	1098.265137	48648.539063	31539.994141	64.020088
487.222931	1097.856567	47882.898438	30990.724609	63.894070
487.577026	1099.168579	46976.785156	30289.154297	63.625767
487.931122	1100.071777	46097.984375	29676.517578	63.506157
488.285126	1101.964478	45262.703125	29200.693359	63.628304
488.639099	1103.642090	44510.371094	28841.617188	63.902473
488.993042	1103.706543	43848.421875	28561.281250	64.236183
489.346954	1101.727905	43273.769531	28341.962891	64.593109
489.700836	1102.609741	42718.285156	28121.701172	64.925278
490.054626	1103.233521	42111.195313	27886.251953	65.311752
490.408417	1100.889160	41562.910156	27669.173828	65.662285
490.762146	1102.093628	41075.882813	27503.367188	66.046463
491.115814	1103.491577	40714.914063	27444.779297	66.499222
491.469513	1103.599121	40368.914063	27386.060547	66.935562
491.823090	1102.007324	39915.222656	27244.130859	67.353668
492.176666	1101.813965	39426.257813	27077.955078	67.779564
492.530182	1100.609375	38929.359375	26891.330078	68.177567
492.883698	1099.813721	38390.558594	26673.736328	68.579811
493.237091	1099.017944	37800.746094	26408.154297	68.958984
493.590515	1099.232910	37121.738281	26075.982422	69.336517
493.943878	1098.243652	36263.609375	25613.904297	69.715355
494.297150	1101.233276	35105.378906	24944.230469	70.117920
494.650452	1100.630981	33647.519531	24055.755859	70.529396
495.003662	1100.093262	31910.638672	22949.208984	70.914406
495.356873	1099.792114	30217.744141	21859.804688	71.296265
495.710022	1100.028687	28792.429688	20982.191406	71.796455
496.063110	1098.329590	27677.992188	20320.173828	72.317863
496.416168	1098.867188	26896.216797	19899.951172	72.879906
496.769165	1100.544922	26366.167969	19647.638672	73.408417
497.122162	1100.286865	26053.806641	19545.560547	73.918526
497.475098	1100.566528	25846.599609	19514.804688	74.412888
497.828003	1100.803223	25765.664063	19559.089844	74.836372
498.180847	1099.190063	25726.951172	19631.851563	75.251099
498.533661	1096.479980	25654.445313	19673.773438	75.646713
498.886444	1097.598267	25577.039063	19707.023438	76.020630
499.239136	1096.221802	25444.720703	19699.753906	76.405251
499.591827	1097.727417	25234.654297	19602.966797	76.667755
499.944427	1098.222168	24928.873047	19463.123047	77.064201
500.297089	1096.243286	24563.923828	19263.076172	77.412132
500.649628	1095.899292	24183.425781	19049.156250	77.761719
501.002136	1097.017700	23780.343750	18828.699219	78.170555
501.354584	1097.232788	23425.330078	18627.404297	78.511711
501.707001	1100.394409	23066.189453	18426.068359	78.875694
502.059387	1102.523804	22777.572266	18255.595703	79.137413
502.411682	1104.524048	22528.509766	18122.482422	79.434135
502.764038	1104.265747	22331.023438	18034.966797	79.761124
503.116302	1104.480957	22180.294922	17971.710938	80.031212
503.468475	1104.803589	22081.445313	17970.011719	80.399948
503.820709	1104.954102	22042.277344	17977.173828	80.584412
504.172852	1105.943481	22012.984375	17999.068359	80.801125
504.524902	1106.136963	22011.242188	18031.500000	80.962822
504.876953	1104.588379	22025.222656	18070.539063	81.096733
505.228912	1102.631226	22043.330078	18112.632813	81.229385
505.580872	1100.222290	22069.484375	18152.808594	81.321823
505.932770	1096.953125	22046.945313	18176.939453	81.527412
506.284698	1098.996460	22020.857422	18189.179688	81.685768
506.636505	1100.695557	22023.373047	18202.148438	81.736443
506.988342	1100.179443	22017.480469	18215.935547	81.825836
507.340088	1100.136353	22023.845703	18229.289063	81.864799
507.691772	1100.674072	22037.267578	18244.710938	81.885513
508.043396	1099.684692	22092.435547	18294.845703	81.909996
508.395050	1100.308472	22172.833984	18363.392578	81.922234
508.746582	1101.555786	22285.621094	18467.492188	81.976410
509.098114	1101.039551	22428.003906	18594.908203	82.027000
509.449646	1099.405151	22588.648438	18729.783203	82.042809
509.801086	1100.200806	22787.533203	18889.888672	82.028015
510.152557	1097.447754	22997.281250	19052.726563	81.988197
510.503906	1094.909790	23199.820313	19211.068359	81.955360
510.855194	1096.114136	23391.392578	19358.183594	81.910034
511.206482	1096.028076	23587.716797	19508.115234	81.861740
511.557709	1094.587158	23787.632813	19673.105469	81.868774
511.908844	1096.458496	23983.898438	19818.908203	81.802292
512.260010	1095.275513	24123.050781	19934.019531	81.808792
512.611206	1094.415161	24226.591797	19982.605469	81.653320
512.962219	1096.178711	24295.806641	20009.382813	81.523735
513.313232	1099.512573	24345.337891	20030.589844	81.438614
513.664246	1099.899780	24347.125000	20012.566406	81.354515
514.015137	1101.663330	24320.863281	19972.001953	81.270409
514.366028	1103.362549	24279.220703	19916.898438	81.177299
514.716919	1103.319458	24214.181641	19841.189453	81.078194
515.067688	1103.706665	24113.310547	19728.166016	80.942108
515.418396	1106.158569	24022.310547	19610.408203	80.747627
515.769104	1105.857422	23951.248047	19518.439453	80.596489
516.119812	1105.857544	23936.923828	19460.949219	80.395248
516.470459	1104.136719	24019.449219	19488.111328	80.225723
516.821106	1103.943237	24165.898438	19561.779297	80.035866
517.171631	1102.631348	24438.595703	19747.757813	79.898674
517.522095	1104.072266	24824.949219	20009.941406	79.701393
517.872559	1101.104126	25355.875000	20380.783203	79.488190
518.222961	1099.491089	25922.587891	20784.210938	79.300018
518.573364	1099.878296	26497.068359	21175.636719	79.047165
518.923645	1097.447876	27009.025391	21534.218750	78.871193
519.273987	1095.813232	27444.949219	21825.308594	78.672394
519.624207	1095.017334	27744.255859	22013.308594	78.494896
519.974487	1094.845215	27967.314453	22151.132813	78.356354
520.324646	1097.146606	28054.812500	22177.781250	78.199036
520.674744	1099.426392	28052.123047	22130.398438	78.029198
521.024780	1100.351196	27905.179688	21948.439453	77.777359
521.374878	1100.415771	27644.673828	21674.966797	77.510361
521.724792	1102.588013	27274.068359	21323.048828	77.261436
522.074707	1100.544800	26863.738281	20943.046875	77.018799
522.424744	1100.136230	26471.169922	20582.978516	76.791679
522.774536	1100.265381	26182.986328	20293.007813	76.517784
523.124329	1099.082520	25963.087891	20074.099609	76.315208
523.474182	1100.846191	25892.238281	19970.687500	76.114487
523.823914	1101.426880	25940.138672	19945.611328	75.866188
524.173523	1102.029175	26151.929688	20041.019531	75.605049
524.523132	1100.588013	26546.710938	20278.101563	75.365166
524.872803	1100.007324	27100.238281	20629.287109	75.111946
525.222290	1098.544678	27838.675781	21124.101563	74.889526
525.571777	1098.695190	28641.482422	21653.498047	74.628624
525.921326	1100.544800	29516.044922	22243.380859	74.405998
526.270752	1100.996582	30439.126953	22853.541016	74.144279
526.620178	1103.706543	31463.101563	23540.507813	73.903976
526.969482	1103.663574	32721.966797	24401.300781	73.684021
527.318787	1102.416138	34311.453125	25502.298828	73.473625
527.668030	1102.416138	36333.511719	26970.375000	73.423660
528.017212	1100.588013	38582.175781	28708.761719	73.657967
528.366394	1098.243652	40807.421875	30473.257813	73.975372
528.715515	1099.964233	42803.152344	32007.255859	74.112541
529.064636	1102.201050	44375.453125	33144.726563	74.046951
529.413635	1101.125732	45543.597656	33945.046875	73.902100
529.762695	1100.652466	46308.406250	34410.652344	73.682053
530.111633	1098.028442	46743.621094	34650.378906	73.506226
530.460510	1096.415405	46786.746094	34587.535156	73.300240
530.809387	1096.996216	46388.996094	34186.238281	73.057587
531.158142	1095.017456	45484.238281	33420.054688	72.821815
531.506958	1094.006470	44063.546875	32212.337891	72.419518
531.855652	1096.759521	42402.140625	30716.626953	71.709457
532.204407	1096.049683	40807.140625	29224.806641	70.833504
532.552979	1095.081909	39555.570313	28064.939453	70.123543
532.901611	1093.963379	38680.625000	27248.601563	69.584900
533.250183	1090.522217	38107.992188	26695.220703	69.169235
533.598755	1091.511597	37671.503906	26269.189453	68.829094
533.947205	1093.834473	37317.117188	25915.105469	68.522980
534.295593	1093.770020	37026.246094	25620.013672	68.256485
534.643982	1093.146362	36790.921875	25373.939453	68.017662
534.992249	1098.329590	36565.519531	25128.251953	67.752533
535.340576	1099.211426	36345.882813	24909.023438	67.551949
535.688843	1096.867065	36093.421875	24660.562500	67.331474
536.037048	1098.351074	35689.480469	24301.548828	67.078461
536.385315	1097.727417	35053.160156	23751.566406	66.716393
536.733398	1093.404297	34230.691406	23090.236328	66.380905
537.081421	1097.963989	33336.515625	22375.267578	65.999565
537.429443	1098.781372	32512.695313	21730.025391	65.675499
537.777466	1099.964233	31796.349609	21169.718750	65.381493
538.125427	1099.491089	31195.392578	20700.498047	65.128494
538.473267	1100.652466	30718.154297	20306.191406	64.845238
538.821167	1096.157349	30342.189453	19974.775391	64.551041
539.169006	1093.490356	30042.281250	19695.451172	64.258163
539.516846	1095.404541	29785.906250	19458.388672	64.003708
539.864502	1094.393677	29725.533203	19330.201172	63.692215
540.212219	1093.597778	29960.894531	19397.091797	63.405640
540.559875	1096.415527	30618.244141	19724.380859	63.098953
540.907410	1095.189453	31609.419922	20274.382813	62.853275
541.254944	1091.812866	32749.218750	20911.064453	62.605419
541.602478	1088.629517	33840.988281	21511.052734	62.354053
541.949951	1091.081543	34812.960938	22036.212891	62.111401
542.297363	1090.995483	35665.558594	22491.345703	61.896225
542.644714	1090.952393	36393.113281	22882.382813	61.728317
542.992126	1094.909912	36898.488281	23104.152344	61.472187
543.339355	1094.909912	37133.890625	23173.171875	61.262169
543.686646	1095.641113	36962.300781	22983.255859	61.024960
544.033813	1096.028320	36350.503906	22527.457031	60.790661
544.380920	1098.544800	35273.101563	21787.689453	60.539612
544.728027	1098.157593	33893.148438	20865.466797	60.275387
545.075134	1099.577026	32485.080078	19923.521484	59.976559
545.422180	1102.609741	31191.500000	19060.318359	59.682190
545.769165	1100.136230	30101.513672	18318.183594	59.369755
546.116150	1101.512695	29163.873047	17683.888672	59.091164
546.463013	1103.620605	28333.876953	17104.720703	58.762207
546.809875	1101.147095	27652.351563	16642.642578	58.534046
547.156677	1100.222290	27041.158203	16210.202148	58.247627
547.503418	1099.340576	26523.564453	15858.891602	58.053101
547.850098	1099.555664	26053.443359	15522.954102	57.800209
548.196777	1099.060913	25603.150391	15208.334961	57.579262
548.543396	1099.684448	25154.019531	14897.374023	57.360508
548.890015	1099.921143	24654.173828	14557.030273	57.132401
549.236633	1099.577026	24106.105469	14189.090820	56.894779
549.583069	1099.383545	23500.394531	13794.247070	56.670937
549.929504	1100.953613	22837.970703	13370.839844	56.446964
550.275879	1100.846191	22184.296875	12954.207031	56.221161
550.622253	1102.136597	21534.345703	12525.402344	55.908127
550.968567	1102.953979	20971.779297	12152.881836	55.614395
551.314819	1105.255249	20489.205078	11828.499023	55.320225
551.661072	1104.029297	20128.861328	11583.479492	55.083012
552.007263	1102.029175	19904.488281	11401.908203	54.779427
552.353394	1103.190430	19757.716797	11264.106445	54.468903
552.699524	1104.480957	19663.253906	11165.104492	54.209526
553.045593	1102.373169	19617.462891	11097.051758	53.981258
553.391602	1104.631470	19596.880859	11051.841797	53.791237
553.737549	1101.168579	19576.876953	10996.609375	53.559193
554.083435	1101.770996	19533.453125	10922.836914	53.283615
554.429321	1103.706543	19478.607422	10852.248047	53.053574
554.775146	1101.942993	19381.414063	10762.581055	52.849659
555.120972	1101.018188	19274.023438	10669.494141	52.652134
555.466675	1102.115112	19112.755859	10544.769531	52.428196
555.812439	1104.222900	18910.880859	10403.267578	52.222290
556.158081	1103.556274	18680.765625	10241.441406	51.987122
556.503662	1102.824829	18449.339844	10079.377930	51.748447
556.849182	1104.739136	18225.054688	9924.519531	51.516457
557.194702	1103.061401	18018.554688	9774.652344	51.264187
557.540161	1104.588501	17818.185547	9635.128906	51.039520
557.885620	1104.330322	17654.017578	9518.856445	50.844021
558.231018	1102.050537	17501.242188	9417.338867	50.705475
558.576355	1100.265381	17381.789063	9329.263672	50.541943
558.921692	1102.115112	17289.044922	9241.187500	50.281754
559.266968	1101.985962	17192.560547	9156.662109	50.058353
559.612183	1100.007324	17111.517578	9087.383789	49.885216
559.957336	1100.157837	17059.187500	9032.582031	49.704929
560.302429	1099.211426	17023.355469	8993.373047	49.573536
560.647522	1098.673706	17005.095703	8954.035156	49.384842
560.992554	1097.211182	16996.341797	8920.654297	49.206738
561.337524	1097.168213	17005.804688	8896.264648	49.024292
561.682434	1095.275513	17022.130859	8875.810547	48.851673
562.027344	1095.662720	17028.236328	8847.978516	48.657024
562.372253	1099.039307	17038.152344	8817.953125	48.427502
562.717102	1099.189941	17022.064453	8792.659180	48.317085
563.061829	1097.813354	17045.335938	8778.873047	48.164597
563.406494	1096.974609	17039.208984	8748.588867	47.995872
563.751160	1093.253784	17025.033203	8716.821289	47.851326
564.095825	1093.963501	17028.648438	8689.205078	47.664837
564.440369	1093.060059	17044.304688	8666.643555	47.479580
564.784973	1095.146362	17087.515625	8655.244141	47.273155
565.129456	1094.329224	17191.763672	8678.171875	47.112122
565.473877	1093.705444	17318.017578	8718.328125	46.995041
565.818298	1091.167480	17494.449219	8785.217773	46.905556
566.162659	1090.801880	17690.904297	8858.108398	46.790718
566.507019	1087.661621	17885.035156	8922.697266	46.644409
566.851196	1090.844849	18033.029297	8969.584961	46.503689
567.195435	1090.930786	18181.650391	9015.396484	46.367073
567.539612	1094.350586	18281.232422	9046.325195	46.267696
567.883789	1093.038574	18350.337891	9053.809570	46.129879
568.227844	1094.350708	18373.931641	9054.305664	46.065674
568.571960	1094.243042	18368.382813	9033.829102	45.962261
568.915955	1094.888306	18297.125000	8977.090820	45.820801
569.259888	1096.587402	18214.556641	8921.449219	45.711391
569.603821	1099.405151	18094.542969	8841.934570	45.557316
569.947632	1099.426514	17961.880859	8771.129883	45.495766
570.291504	1100.544922	17867.480469	8703.723633	45.346264
570.635193	1097.146606	17825.111328	8672.256836	45.284111
570.979004	1099.275879	17849.824219	8665.482422	45.169903
571.322632	1100.695435	17954.826172	8692.539063	45.044411
571.666321	1101.190186	18077.617188	8732.285156	44.951122
572.009949	1102.072021	18221.482422	8775.968750	44.825706
572.353455	1102.566772	18347.908203	8822.383789	44.764648
572.696960	1101.254761	18457.728516	8863.270508	44.721153
573.040405	1099.146973	18533.201172	8881.079102	44.636387
573.383850	1098.587769	18599.574219	8894.909180	44.547897
573.727173	1099.297607	18644.417969	8897.403320	44.446007
574.070557	1099.577148	18657.710938	8902.264648	44.439163
574.413879	1100.953735	18657.667969	8888.972656	44.359203
574.757019	1099.813721	18610.478516	8862.344727	44.330307
575.100281	1097.447876	18509.691406	8815.543945	44.325684
575.443420	1097.125122	18375.201172	8748.137695	44.281624
575.786499	1094.458130	18211.888672	8663.524414	44.218475
576.129517	1091.361084	18045.138672	8575.234375	44.142807
576.472534	1090.909302	17876.083984	8489.459961	44.077892
576.815491	1091.296509	17689.091797	8392.308594	43.987843
577.158447	1090.221191	17486.445313	8289.047852	43.905392
577.501343	1090.049072	17278.958984	8187.982910	43.844418
577.844116	1089.167236	17046.132813	8071.537598	43.757504
578.187012	1089.769531	16777.798828	7940.381348	43.667767
578.529724	1090.479370	16485.935547	7801.159668	43.588707
578.872375	1090.285645	16187.790039	7656.819824	43.494171
579.215027	1092.199951	15902.677734	7521.275391	43.408966
579.557617	1093.834473	15631.097656	7393.562012	43.335030
579.900146	1097.426270	15371.777344	7273.610840	43.267708
580.242676	1098.200684	15135.146484	7160.909180	43.191082
580.585144	1098.372681	14925.915039	7063.392090	43.138683
580.927612	1099.964355	14731.781250	6979.789551	43.133102
581.269958	1099.598633	14558.878906	6897.521484	43.077511
581.612305	1099.770752	14418.152344	6830.029297	43.025188
581.954590	1099.125488	14297.750000	6767.548340	42.947071
582.296814	1099.512573	14190.812500	6715.714355	42.900261
582.639038	1100.200806	14103.037109	6667.277832	42.814331
582.981140	1099.340576	14021.628906	6625.445313	42.764133
583.323242	1099.512573	13931.920898	6593.182617	42.810905
583.665283	1098.265015	13851.415039	6559.781250	42.824841
584.007324	1100.028687	13781.985352	6526.034180	42.785236
584.349304	1102.007446	13709.204102	6489.771973	42.735630
584.691284	1102.308472	13636.271484	6459.144043	42.738560
585.033142	1102.351685	13574.391602	6427.248047	42.694672
585.374939	1104.566895	13519.954102	6399.007813	42.644188
585.716736	1107.836060	13466.011719	6383.672363	42.691063
586.058411	1106.567139	13411.962891	6361.218750	42.702011
586.400085	1110.137451	13364.902344	6341.732910	42.690300
586.741760	1109.212769	13321.413086	6326.676758	42.723373
587.083374	1109.234253	13313.434570	6320.030762	42.696747
587.424988	1108.954590	13301.734375	6310.760742	42.663006
587.766541	1107.018799	13296.334961	6306.845703	42.658890
588.107971	1106.717773	13323.178711	6321.428223	42.685932
588.449341	1105.964966	13351.696289	6328.504395	42.647839
588.790710	1102.932373	13396.068359	6342.377930	42.620903
589.132080	1100.415894	13431.727539	6358.357422	42.638947
589.473267	1097.619873	13485.625977	6374.832520	42.599373
589.814514	1098.308105	13539.355469	6392.985840	42.558136
590.155762	1094.866943	13599.190430	6415.913574	42.553658
590.496948	1095.662720	13625.881836	6428.000488	42.555824
590.838013	1093.791504	13636.012695	6425.936035	42.513561
591.179077	1093.425903	13644.377930	6426.623535	42.492374
591.520081	1093.124756	13635.905273	6422.559082	42.490059
591.861023	1092.909668	13604.050781	6402.986328	42.442787
592.201965	1094.049683	13567.380859	6382.854980	42.400906
592.542847	1094.350708	13520.362305	6361.390625	42.387215
592.883606	1094.350586	13474.616211	6340.678223	42.376534
593.224365	1093.812988	13432.461914	6319.944824	42.355789
593.565125	1095.038940	13414.565430	6306.695801	42.304035
593.905823	1093.662354	13405.166016	6301.039063	42.296837
594.246521	1093.640991	13429.277344	6301.684570	42.219494
594.587097	1095.813232	13479.755859	6316.051270	42.153282
594.927612	1095.060425	13530.147461	6334.268555	42.132462
595.268127	1098.501831	13617.537109	6371.520508	42.120007
595.608582	1096.738159	13737.702148	6428.301758	42.176876
595.948975	1097.361816	13919.186523	6503.923828	42.166870
596.289307	1097.921021	14138.355469	6605.420410	42.234016
596.629700	1097.920898	14373.543945	6708.508301	42.262329
596.969971	1098.695190	14583.634766	6799.724609	42.277012
597.310242	1095.791748	14748.256836	6870.077637	42.294827
597.650391	1097.017700	14833.452148	6906.382813	42.291653
597.990540	1098.157715	14878.662109	6924.578613	42.280174
598.330627	1096.910278	14868.209961	6921.502930	42.295155
598.670654	1098.071655	14827.321289	6902.984375	42.281353
599.010620	1096.802612	14715.005859	6853.796387	42.274254
599.350525	1097.211182	14560.815430	6784.087891	42.238888
599.690491	1095.447510	14334.487305	6686.764160	42.233547
600.030334	1095.963745	14053.934570	6563.351074	42.193237
600.370178	1098.437134	13753.231445	6432.280762	42.148800
600.710022	1097.920898	13462.032227	6305.146973	42.115650
601.049683	1100.523438	13202.603516	6193.993652	42.087559
601.389343	1100.222290	13015.827148	6112.757324	42.066982
601.728943	1098.458618	12878.240234	6055.202637	42.078407
602.068542	1099.340454	12808.490234	6021.541992	42.037228
602.408081	1099.555542	12813.306641	6023.046875	42.031723
602.747498	1096.587402	12897.833984	6054.685547	42.013344
603.087036	1097.426270	13028.324219	6106.885742	41.987278
603.426453	1096.200317	13228.691406	6186.594238	41.956711
603.765869	1096.049683	13460.613281	6283.681641	41.955639
604.105103	1095.404419	13732.733398	6394.749512	41.934059
604.444336	1095.038940	14025.156250	6516.785645	41.931149
604.783569	1092.694580	14310.224609	6637.123535	41.947540
605.122681	1093.339722	14537.800781	6734.382813	41.958118
605.461792	1093.898926	14714.596680	6805.531250	41.933479
605.800842	1091.619141	14821.641602	6854.376465	41.971943
606.139954	1091.188965	14841.731445	6861.710449	41.965771
606.478943	1092.458008	14791.166016	6839.879883	41.955940
606.817932	1092.909668	14669.818359	6790.712402	41.966866
607.156799	1096.307861	14492.224609	6714.660645	41.940784
607.495605	1098.050049	14283.812500	6621.422363	41.888908
607.834412	1097.770386	14040.190430	6512.935547	41.840435
608.173157	1099.641602	13796.268555	6409.525391	41.821217
608.511841	1100.394409	13598.674805	6326.611328	41.815487
608.850464	1098.394165	13492.187500	6274.498047	41.763680
609.189148	1099.856567	13428.931641	6247.161133	41.749317
609.527710	1100.674072	13402.199219	6229.847168	41.695423
609.866211	1099.684692	13397.660156	6223.137207	41.660942
610.204712	1098.544800	13401.832031	6224.771484	41.665504
610.543091	1097.619873	13421.490234	6223.050293	41.589458
610.881409	1095.705566	13409.467773	6222.062012	41.631115
611.219788	1093.963623	13372.667969	6207.070313	41.642071
611.558044	1093.812988	13309.347656	6188.551758	41.707047
611.896301	1091.705078	13199.097656	6139.492188	41.691776
612.234436	1092.737671	13027.894531	6063.353516	41.646839
612.572693	1094.694824	12793.499023	5964.976074	41.630589
612.910767	1094.221558	12539.918945	5858.532715	41.625347
613.248840	1094.178589	12277.156250	5755.208008	41.679680
613.586792	1096.888550	12025.425781	5653.797363	41.697334
613.924805	1098.695190	11788.512695	5556.042969	41.697136
614.262695	1099.727661	11571.411133	5467.365723	41.709034
614.600525	1101.254761	11383.238281	5386.860840	41.680733
614.938293	1102.953979	11231.972656	5323.863770	41.671459
615.276123	1103.040039	11102.236328	5262.544434	41.598389
615.613892	1100.824707	10995.621094	5218.539063	41.614944
615.951538	1099.362183	10904.834961	5180.125488	41.617199
616.289185	1099.835205	10831.686523	5151.046875	41.628376
616.626770	1097.641479	10767.162109	5128.656738	41.687851
616.964294	1097.727417	10728.683594	5108.547363	41.645084
617.301819	1096.781128	10697.540039	5093.534668	41.629559
617.639221	1097.619873	10677.108398	5085.426270	41.628593
617.976624	1097.211060	10657.708008	5076.586426	41.623104
618.313965	1096.243286	10649.468750	5070.413574	41.600300
618.651306	1096.028198	10634.735352	5057.917480	41.534866
618.988525	1094.178589	10620.928711	5048.109863	41.503464
619.325684	1097.297363	10602.753906	5042.367188	41.503212
619.662964	1099.921387	10589.075195	5037.032227	41.490639
620.000000	1099.813721	10570.235352	5030.235840	41.502079
620.337097	1098.974854	10547.738281	5016.492188	41.460632
620.674133	1097.942505	10512.743164	5001.543945	41.462391
621.011047	1097.017578	10483.148438	4983.563477	41.407326
621.347961	1096.092773	10448.735352	4964.141602	41.357819
621.684875	1094.737793	10412.816406	4950.936035	41.384052
622.021729	1095.813232	10378.791016	4937.772949	41.387150
622.358521	1095.684204	10344.764648	4923.706543	41.388142
622.695313	1097.103638	10306.308594	4914.286133	41.449642
623.031982	1096.824097	10284.176758	4901.704102	41.414322
623.368652	1095.296997	10261.485352	4891.466797	41.414925
623.705261	1095.963745	10251.548828	4889.767578	41.437042
624.041748	1097.469238	10251.785156	4885.121582	41.375587
624.378296	1099.340454	10255.355469	4886.906738	41.366978
624.714722	1099.426636	10275.638672	4897.488770	41.390305
625.051147	1101.190186	10313.256836	4912.651855	41.374664
625.387512	1100.501953	10365.477539	4934.590332	41.382607
625.723877	1098.609253	10452.929688	4965.432617	41.337299
626.060120	1099.770630	10549.522461	5008.942871	41.367989
626.396301	1098.716797	10676.248047	5056.540527	41.324051
626.732483	1099.362183	10795.445313	5108.912109	41.352264
627.068604	1102.287109	10906.147461	5155.434082	41.342358
627.404724	1102.631348	11006.245117	5187.653320	41.247795
627.740662	1102.609863	11092.771484	5226.303223	41.277542
628.076721	1104.029175	11155.273438	5246.542480	41.213936
628.412720	1104.889526	11191.256836	5257.145508	41.167011
628.748596	1103.620605	11195.687500	5256.242676	41.147392
629.084473	1105.943481	11178.266602	5249.445801	41.137505
629.420227	1107.277100	11111.333984	5225.809082	41.168621
629.755981	1106.911377	11027.991211	5187.825684	41.133770
630.091675	1108.180298	10910.987305	5141.562012	41.145172
630.427307	1110.503174	10777.874023	5086.329590	41.126244
630.762939	1106.266113	10644.050781	5028.580078	41.123951
631.098450	1105.362671	10515.711914	4976.444824	41.136433
631.434021	1104.781982	10400.235352	4928.675293	41.137245
631.769470	1103.685059	10291.620117	4886.562988	41.172230
632.104980	1102.846313	10191.930664	4850.106445	41.228138
632.440308	1102.029053	10108.780273	4816.984375	41.246342
632.775635	1101.813965	10030.147461	4786.292480	41.267258
633.110901	1099.211426	9979.409180	4766.418457	41.296459
633.446106	1098.480103	9941.985352	4757.191895	41.371742
633.781250	1099.641602	9918.605469	4746.072266	41.347610
634.116394	1099.232910	9898.128906	4737.081543	41.344372
634.451538	1102.158081	9885.289063	4729.187988	41.295410
634.786560	1102.867798	9865.500977	4720.843262	41.288681
635.121582	1102.502075	9830.788086	4708.798340	41.317348
635.456543	1102.308594	9802.785156	4697.312988	41.319626
635.791443	1103.534424	9758.627930	4683.397461	41.361343
636.126221	1104.502441	9707.848633	4669.911621	41.442123
636.461060	1105.190674	9659.993164	4646.941406	41.400730
636.795776	1107.190918	9596.716797	4618.120605	41.356018
637.130493	1105.943481	9518.750000	4581.169922	41.308765
637.465210	1103.878784	9428.092773	4541.831543	41.300629
637.799805	1102.028931	9344.297852	4503.956055	41.274162
638.134399	1101.233276	9254.458984	4471.801270	41.340298
638.468933	1101.254761	9165.372070	4443.669434	41.447990
638.803345	1101.125610	9083.641602	4411.837402	41.474541
639.137756	1100.050293	9002.297852	4379.660645	41.502247
639.472168	1100.394409	8935.709961	4345.742676	41.419495
639.806519	1100.007324	8868.152344	4308.964355	41.309181
640.140747	1096.695190	8796.789063	4281.562988	41.361416
640.474976	1094.071167	8722.736328	4253.882324	41.420235
640.809204	1094.759277	8651.587891	4226.072266	41.436867
641.143372	1095.899292	8599.172852	4203.682617	41.419033
641.477478	1095.770264	8539.037109	4181.808594	41.460808
641.811462	1095.469116	8489.138672	4158.429688	41.426796
642.145447	1096.630615	8438.615234	4130.253418	41.318840
642.479370	1098.974976	8393.835938	4110.380371	41.281189
642.813293	1100.846069	8347.163086	4088.011719	41.223225
643.147095	1100.846191	8300.597656	4070.977539	41.253250
643.480957	1101.039673	8259.368164	4059.449219	41.328217
643.814758	1104.373413	8223.168945	4046.566162	41.329926
644.148438	1105.362793	8195.423828	4034.349365	41.311161
644.482117	1105.986450	8168.646973	4023.358643	41.306984
644.815735	1103.061401	8131.695801	4012.389648	41.392509
645.149292	1102.717163	8109.973145	4001.227295	41.364414
645.482788	1101.899902	8092.078125	3988.924316	41.301155
645.816223	1099.942749	8076.871582	3984.085205	41.338284
646.149658	1099.706177	8067.816895	3979.095215	41.322380
646.483032	1100.502075	8075.860840	3983.633545	41.333088
646.816345	1100.093384	8077.473633	3986.450928	41.367352
647.149658	1098.200684	8077.538574	3989.612549	41.428169
647.482849	1096.200317	8084.291992	3985.375244	41.344261
647.816101	1096.824097	8078.957520	3992.300781	41.469799
648.149231	1098.308105	8086.378418	3995.053955	41.452728
648.482239	1100.523560	8096.530762	4000.710938	41.454895
648.815247	1100.953613	8095.196777	3999.915039	41.447823
649.148254	1099.426636	8089.260742	4004.259521	41.557968
649.481201	1100.222412	8077.538574	4006.130615	41.647934
649.814087	1101.082764	8073.194824	4002.839844	41.619484
650.146973	1098.630859	8060.848633	3994.817383	41.598621
650.479736	1098.931885	8054.697266	3994.021729	41.621441
650.812500	1101.921509	8054.976563	3988.730469	41.518570
651.145203	1101.104248	8043.039551	3988.408447	41.592205
651.477844	1100.803101	8051.212402	3980.127930	41.426693
651.810486	1097.705933	8047.298340	3976.299072	41.421040
652.143005	1096.716675	8036.156250	3966.427246	41.353634
652.475525	1096.716675	8036.543457	3966.577393	41.353493
652.807922	1097.426392	8025.961426	3964.555664	41.381466
653.140381	1097.168213	8024.478027	3958.490479	41.304958
653.472717	1095.383057	7998.733887	3946.080322	41.294399
653.805115	1095.727173	7972.062988	3939.799805	41.360294
654.137390	1093.770020	7941.564453	3924.013184	41.330727
654.469543	1093.296753	7907.625000	3913.925781	41.392620
654.801758	1095.619629	7876.094238	3902.225586	41.392471
655.133850	1096.867065	7834.734375	3891.686035	41.479282
655.465881	1097.490723	7790.793457	3882.545410	41.609573
655.797974	1099.082397	7760.961426	3878.286865	41.718029
656.129944	1099.921143	7724.742188	3871.468750	41.835808
656.461853	1098.114502	7702.911133	3864.715820	41.887756
656.793762	1096.974487	7684.500000	3860.027100	41.943714
657.125610	1097.189575	7687.489258	3869.920898	42.072918
657.457397	1096.845581	7706.740234	3881.320068	42.125854
657.789124	1098.265137	7744.443359	3903.451416	42.207508
658.120789	1096.652100	7805.526367	3932.057129	42.263500
658.452393	1095.963867	7895.795410	3973.889893	42.323490
658.783997	1096.393921	8007.443848	4018.669434	42.284103
659.115540	1099.706177	8137.502930	4071.235352	42.222435
659.447083	1099.082520	8251.990234	4123.048828	42.276043
659.778503	1097.383301	8362.735352	4167.656250	42.259109
660.109924	1099.276001	8457.262695	4208.521484	42.256744
660.441284	1099.770630	8524.668945	4244.762207	42.357368
660.772522	1100.394287	8568.072266	4264.937012	42.376530
661.103760	1101.082520	8577.277344	4272.034668	42.413986
661.434998	1102.028809	8569.641602	4266.463867	42.375458
661.766113	1104.007690	8515.679688	4240.181152	42.313980
662.097229	1104.029419	8421.323242	4199.896484	42.308907
662.428345	1104.717651	8297.867188	4151.653809	42.358860
662.759277	1102.179565	8148.234863	4092.162598	42.434849
663.090332	1102.609741	8003.937988	4028.778320	42.400078
663.421204	1101.942993	7856.973145	3965.372559	42.389591
663.752075	1102.846313	7713.859375	3905.408447	42.392323
664.082886	1102.867798	7589.284668	3851.359131	42.373028
664.413635	1100.889160	7478.367676	3801.245117	42.342064
664.744324	1099.233032	7379.688965	3760.315430	42.370850
665.075012	1097.899536	7287.720215	3724.482910	42.433918
665.405640	1097.963989	7214.679199	3701.663086	42.566952
665.736206	1098.394165	7161.597168	3676.455566	42.519794
666.066772	1095.727051	7110.623047	3656.926514	42.580944
666.397278	1096.867065	7076.941895	3639.074951	42.511307
666.727661	1095.555054	7038.851074	3629.847900	42.641205
667.058044	1097.469238	7009.146973	3621.975830	42.703724
667.388306	1097.512329	6988.822266	3611.071045	42.665527
667.718567	1098.673828	6970.820313	3603.844482	42.661922
668.048828	1099.899780	6964.669922	3604.339111	42.703114
668.378967	1102.889404	6962.884277	3606.963135	42.731670
668.709167	1103.921875	6958.732910	3606.748291	42.748203
669.039246	1101.878540	6962.690918	3605.758789	42.722412
669.369263	1102.416260	6956.776367	3607.823486	42.795574
669.699341	1104.846558	6948.473633	3609.931152	42.868660
670.029236	1105.083130	6938.924805	3610.855713	42.952354
670.359131	1107.147827	6934.085449	3603.822754	42.847118
670.688965	1106.502686	6921.546875	3599.456787	42.870770
671.018738	1105.384277	6902.124512	3593.520508	42.923023
671.348511	1103.878662	6880.379883	3584.680664	42.946449
671.678223	1104.308716	6849.687500	3571.926514	42.949608
672.007813	1102.867676	6814.112793	3555.666504	42.946831
672.337341	1100.157715	6783.227051	3540.675537	42.943657
672.666992	1102.201050	6750.986328	3523.167725	42.858185
672.996460	1102.115112	6716.401855	3505.402100	42.806633
673.325867	1100.673950	6688.054199	3483.980225	42.655163
673.655273	1097.275635	6651.426270	3465.568848	42.640064
673.984619	1095.382935	6617.271484	3449.287354	42.628609
674.314026	1096.415283	6586.729492	3437.006348	42.631275
674.643250	1098.243652	6561.845215	3426.187744	42.608234
674.972412	1098.802856	6540.853516	3417.821289	42.612953
675.301514	1098.243652	6515.022949	3405.497070	42.594563
675.630676	1097.404663	6495.687012	3394.420410	42.550861
675.959778	1100.243774	6470.328125	3384.010742	42.527584
676.288757	1099.189941	6442.131348	3375.923584	42.611988
676.617737	1098.265137	6422.817383	3366.309326	42.595963
676.946594	1098.566284	6406.148438	3365.126709	42.704201
677.275513	1100.673950	6395.158203	3362.007813	42.711128
677.604309	1101.899902	6392.383301	3360.093750	42.684074
677.933044	1100.781494	6398.320313	3358.996826	42.627628
678.261780	1100.803101	6410.879883	3365.513916	42.649307
678.590393	1099.340576	6432.216797	3367.686523	42.535133
678.919067	1101.254761	6468.823242	3378.461670	42.425301
679.247620	1100.523315	6513.860840	3397.088135	42.424198
679.576111	1099.125366	6559.737305	3419.757568	42.497662
679.904541	1098.179077	6620.088867	3441.157715	42.430584
680.232971	1098.006958	6676.332520	3468.494385	42.494602
680.561401	1097.490845	6732.962891	3493.443604	42.515560
680.889709	1097.082153	6787.829590	3510.886475	42.416294
681.217957	1096.350830	6834.244141	3526.092773	42.345539
681.546143	1094.006470	6873.323730	3541.643066	42.351658
681.874390	1095.318481	6900.359375	3552.268555	42.324425
682.202454	1096.393799	6914.985840	3562.742920	42.387390
682.530579	1096.157227	6905.263672	3562.828369	42.462143
682.858521	1099.017700	6874.012695	3550.676514	42.452999
683.186523	1099.426514	6833.169922	3532.029053	42.426083
683.514465	1099.641602	6772.193848	3508.327393	42.462116
683.842346	1100.157715	6708.701660	3481.356201	42.456627
684.170166	1101.727905	6635.251465	3445.868164	42.362522
684.497925	1100.673950	6558.102051	3418.165527	42.464905
684.825623	1100.609375	6474.780762	3388.333740	42.568874
685.153320	1103.814087	6395.049805	3356.179443	42.567848
685.481018	1100.932007	6318.846680	3323.293213	42.590988
685.808533	1097.920898	6247.827637	3288.127930	42.529060
686.136047	1096.910034	6188.508301	3264.340088	42.568760
686.463623	1094.716309	6143.836426	3241.412354	42.516239
686.791016	1093.898926	6115.273438	3224.915771	42.438915
687.118408	1093.038696	6102.132324	3217.086670	42.403835
687.445740	1093.705566	6096.776855	3212.570313	42.351280
687.772949	1094.221558	6093.271484	3210.677490	42.337166
688.100220	1095.705688	6093.701660	3204.956299	42.201923
688.427429	1093.985107	6090.109375	3204.547119	42.243988
688.754517	1094.995972	6091.464355	3202.203125	42.173931
689.081604	1098.157593	6083.226563	3193.406250	42.030483
689.408630	1102.158203	6065.138672	3187.448486	42.016895
689.735657	1102.394653	6042.167480	3174.350586	41.944359
690.062622	1104.502441	6012.873535	3160.993652	41.897633
690.389465	1104.244385	5970.202637	3145.701660	41.953861
690.716248	1105.685425	5911.765137	3124.645264	42.008457
691.043091	1103.599121	5852.058105	3099.502197	42.032650
691.369812	1101.125732	5789.728027	3073.778320	42.073360
691.696533	1100.910645	5724.429688	3049.775635	42.151119
692.023132	1104.050781	5671.025391	3021.385010	41.982590
692.349670	1102.287109	5605.705078	2995.252930	42.033981
692.676270	1101.039673	5552.150391	2973.400635	42.065025
693.002747	1098.523315	5502.918457	2953.935791	42.126389
693.329163	1099.146973	5454.503906	2932.771729	42.100449
693.655518	1098.566284	5414.843262	2917.264648	42.135815
693.981873	1098.286743	5380.150879	2896.875244	42.004799
694.308167	1097.318726	5352.255371	2882.056152	41.945103
694.634399	1099.340576	5318.573730	2867.280273	41.901917
694.960571	1100.588013	5295.774902	2857.429443	41.877548
695.286743	1100.222412	5279.320801	2852.439697	41.928116
695.612854	1098.652222	5266.910645	2849.148682	41.995872
695.938904	1098.630737	5266.072266	2846.761475	41.947338
696.264832	1098.845825	5277.858887	2850.439209	41.914043
696.590820	1100.846191	5295.279785	2855.988525	41.844563
696.916687	1100.394409	5332.553223	2866.871582	41.739388
697.242554	1100.114868	5381.053711	2888.358154	41.772221
697.568359	1099.856689	5452.417480	2918.103760	41.774193
697.894043	1100.738525	5550.967285	2956.624756	41.703167
698.219788	1099.534058	5673.821777	3002.738037	41.606567
698.545349	1101.792358	5811.623535	3057.131836	41.516129
698.870972	1102.136597	5945.833984	3105.438477	41.358940
699.196533	1102.846313	6066.235840	3148.002930	41.204838
699.521973	1101.211670	6169.517578	3183.813965	41.090702
699.847412	1101.125488	6241.720215	3215.193848	41.124977
700.172852	1103.534424	6290.349609	3235.303955	41.099777
700.498169	1104.201172	6309.813965	3245.197754	41.128616
700.823486	1103.749512	6299.876953	3231.948975	40.957417
701.148682	1104.244263	6248.881348	3210.311768	40.937141
701.473816	1103.663574	6161.343750	3172.629639	40.907413
701.799072	1104.351685	6041.027832	3122.838867	40.887573
702.124146	1100.867554	5895.203125	3057.540039	40.812172
702.449158	1100.544922	5739.484863	2992.349365	40.780964
702.774109	1103.018433	5585.810059	2927.610107	40.702129
703.099060	1102.674316	5439.813965	2868.979004	40.725105
703.424011	1102.502197	5303.388672	2811.423584	40.680016
703.748840	1100.630981	5186.169434	2759.804443	40.610886
704.073608	1099.426514	5079.683105	2713.604980	40.554634
704.398315	1100.846069	4983.585449	2680.052490	40.672482
704.723022	1103.513062	4910.414551	2644.693115	40.483845
705.047668	1101.942993	4846.686523	2617.227539	40.464306
705.372253	1101.770996	4791.173828	2593.676270	40.437580
705.696716	1102.953857	4744.007324	2574.727539	40.421646
706.021240	1102.674316	4704.539551	2562.812256	40.538383
706.345764	1097.641357	4671.353027	2553.391602	40.734966
706.670044	1099.942749	4651.285645	2545.412109	40.702053
706.994446	1097.189697	4638.187500	2536.013184	40.633278
707.318665	1095.318604	4627.347168	2527.238037	40.540993
707.642883	1094.587158	4623.282227	2525.452881	40.549431
707.967102	1093.038574	4619.604980	2523.818115	40.571461
708.291260	1092.113770	4615.281250	2525.237793	40.677147
708.615295	1095.447510	4613.969727	2524.270020	40.608597
708.939331	1096.630493	4619.562012	2526.571289	40.589512
709.263367	1096.415527	4626.874512	2530.872803	40.630901
709.587280	1097.641479	4638.832520	2535.884277	40.614666
709.911194	1098.888794	4662.556152	2544.960693	40.578194
710.234985	1098.071533	4684.344238	2551.219727	40.519733
710.558716	1101.104248	4710.605469	2565.156494	40.561069
710.882568	1104.373413	4740.694824	2581.266357	40.615028
711.206177	1105.212158	4770.397949	2593.461182	40.605011
711.529785	1105.319702	4803.110840	2603.741943	40.522091
711.853394	1104.459351	4831.093262	2614.797119	40.528206
712.176880	1103.857178	4846.105469	2623.551025	40.609112
712.500427	1102.394653	4857.935059	2627.981445	40.622295
712.823792	1100.458984	4866.709961	2628.433350	40.570168
713.147217	1100.351440	4868.839355	2623.271240	40.411961
713.470520	1099.878052	4855.547363	2616.775635	40.389538
713.793823	1100.437378	4835.544922	2609.398438	40.399403
714.117004	1100.523438	4811.112305	2599.978027	40.410152
714.440247	1098.200684	4783.754395	2587.825928	40.417950
714.763367	1098.415771	4748.201172	2575.114746	40.459885
715.086365	1097.232788	4712.841797	2561.349609	40.494335
715.409485	1096.781128	4687.011230	2548.315674	40.430126
715.732361	1097.275879	4667.696777	2539.669434	40.398418
716.055298	1097.405029	4649.586426	2531.926514	40.384239
716.378174	1100.308472	4628.573242	2525.215820	40.385502
716.700928	1100.760132	4606.527832	2518.462646	40.439148
717.023804	1101.340820	4585.686035	2510.418701	40.440250
717.346558	1101.728027	4558.823242	2500.288330	40.454781
717.669189	1098.609253	4527.421387	2485.125244	40.437214
717.991760	1097.469238	4488.470215	2468.219727	40.423183
718.314392	1096.587402	4450.594238	2450.906006	40.379124
718.636902	1099.577026	4408.395508	2432.881836	40.295498
718.959351	1100.157715	4350.775391	2415.310059	40.458538
719.281738	1098.566284	4297.457031	2394.253662	40.504272
719.604065	1098.781250	4234.267090	2372.444580	40.620926
719.926453	1097.727417	4175.249023	2348.872070	40.654293
720.248718	1095.963745	4124.210449	2326.739990	40.643196
720.570923	1096.028198	4073.709229	2306.199707	40.641407
720.893066	1093.705322	4031.316406	2293.101318	40.828957
721.215088	1096.178833	3985.740723	2276.389648	40.843933
721.537170	1098.501709	3947.241943	2261.656494	40.830498
721.859192	1100.587891	3913.947754	2249.181885	40.826416
722.181152	1099.103882	3881.728271	2240.471191	41.017654
722.503052	1100.480469	3859.360107	2231.136719	40.982441
722.824951	1102.652832	3835.615479	2218.188965	40.817833
723.146790	1103.190552	3823.097412	2212.704102	40.792339
723.468506	1104.330444	3809.010010	2209.306396	40.854225
723.790161	1104.480957	3791.265625	2207.284424	41.045471
724.111816	1107.599609	3779.392822	2203.800049	41.028641
724.433472	1109.083618	3764.789063	2195.089355	40.893303
724.755005	1108.933105	3761.132813	2194.572998	40.933563
725.076477	1107.642578	3755.927979	2194.530029	41.041176
725.397888	1106.309082	3752.292969	2196.186035	41.189857
725.719299	1106.760864	3754.831055	2193.734131	41.047749
726.040710	1105.642456	3757.368652	2194.357910	41.056858
726.361938	1102.781738	3763.111572	2197.025146	41.131870
726.683167	1101.319336	3769.628174	2198.509033	41.119293
727.004395	1098.523315	3782.791260	2200.272705	41.044685
727.325500	1098.888916	3802.943848	2204.767822	40.897057
727.646667	1097.361816	3818.666504	2213.134521	41.001389
727.967651	1096.738037	3837.765625	2223.350586	41.101833
728.288635	1095.533569	3854.434570	2227.243652	41.020325
728.609558	1096.609009	3870.242920	2231.114990	40.903236
728.930481	1097.748901	3888.051514	2237.374023	40.842346
729.251282	1097.533813	3895.902100	2244.148926	40.974419
729.572021	1097.856567	3901.946045	2245.977295	40.944511
729.892761	1101.147217	3904.398193	2252.709229	41.079517
730.213440	1103.082886	3907.000244	2256.817139	41.147224
730.534119	1103.125854	3909.043701	2261.011230	41.265831
730.854675	1105.298340	3910.914795	2265.205322	41.342323
731.175171	1103.986328	3916.764893	2266.108643	41.315811
731.495605	1106.180176	3921.561035	2267.980225	41.266178
731.816101	1105.470215	3924.852295	2272.776367	41.402908
732.136475	1105.083130	3927.583008	2278.110352	41.559868
732.456787	1101.405273	3927.024170	2277.981201	41.639584
732.777039	1100.803101	3935.347900	2284.863525	41.772507
733.097229	1101.018066	3941.176758	2294.112061	42.008003
733.417480	1098.867310	3944.983398	2293.294922	41.966930
733.737549	1097.125122	3943.112305	2291.660156	41.972607
734.057617	1098.179077	3932.616455	2290.283691	42.057892
734.377563	1095.189331	3911.086670	2284.992676	42.253078
734.697510	1096.071289	3878.867432	2272.733154	42.283436
735.017517	1093.770020	3843.358398	2262.731934	42.514069
735.337341	1093.189331	3805.761963	2250.257568	42.655750
735.657166	1093.683960	3767.800537	2239.525146	42.849335
735.976868	1096.243286	3729.903076	2223.802490	42.813396
736.296631	1096.479980	3685.919434	2203.907715	42.767082
736.616272	1096.609009	3646.989746	2185.217041	42.684135
736.935852	1094.200195	3613.695068	2173.495117	42.837749
737.255371	1092.995728	3579.648193	2163.429443	43.047180
737.574829	1092.716187	3553.386719	2154.933594	43.167805
737.894348	1093.167847	3539.879150	2149.427490	43.170586
738.213745	1090.952515	3535.707031	2150.180420	43.326557
738.533081	1090.780396	3536.954102	2151.944336	43.380562
738.852356	1092.436523	3542.008545	2155.815674	43.410812
739.171570	1091.425659	3550.095947	2154.847900	43.251923
739.490784	1090.414673	3554.031982	2159.816162	43.407780
739.809937	1089.769409	3559.795898	2164.547852	43.512833
740.129028	1086.263550	3556.870850	2164.375488	43.637524
740.447998	1089.360840	3549.062744	2164.547852	43.712086
740.767029	1089.791016	3542.073242	2160.891357	43.677696
741.085999	1090.866333	3529.534180	2155.191650	43.643715
741.404846	1093.941895	3505.854004	2145.900146	43.615116
741.723633	1096.566040	3479.054688	2140.845703	43.831463
742.042358	1097.619995	3447.330566	2130.651123	43.964188
742.361145	1098.308105	3413.713379	2117.660156	44.024780
742.679810	1098.630737	3378.698242	2107.357910	44.241112
742.998413	1098.071411	3342.435303	2096.216797	44.473423
743.316956	1096.544434	3307.721191	2084.064697	44.660393
743.635498	1100.953491	3277.159180	2073.869873	44.707008
743.953979	1099.835205	3247.563477	2063.804199	44.883190
744.272400	1103.276489	3222.377930	2058.190674	45.062218
744.590698	1101.018066	3197.170166	2052.362061	45.385258
744.909058	1098.652222	3172.715576	2045.845215	45.668468
745.227356	1099.361938	3152.347656	2039.521606	45.794746
745.545471	1099.835083	3136.452881	2032.768066	45.807957
745.863586	1101.706299	3118.794678	2028.229980	45.933716
746.181702	1101.835449	3099.072021	2024.143311	46.179199
746.499756	1105.083130	3085.199463	2023.540894	46.384029
746.817810	1108.782593	3073.305420	2023.777466	46.575935
747.135742	1106.696411	3063.347412	2026.057373	46.986458
747.453613	1107.449097	3057.948975	2029.842896	47.290123
747.771423	1105.448730	3051.646729	2034.316528	47.727303
748.089233	1108.997559	3048.893799	2037.757813	47.876801
748.406982	1110.008545	3053.905273	2045.930908	48.146713
748.724609	1109.685913	3058.378906	2052.727539	48.393547
749.042236	1107.018799	3059.346924	2062.922119	48.962227
749.359863	1104.480957	3064.616455	2074.235352	49.473846
749.677429	1103.362427	3072.724854	2080.515869	49.617756
749.994873	1101.577393	3079.026611	2088.710449	49.919514
750.312256	1100.243896	3083.586182	2095.227295	50.167004
750.629639	1103.491699	3088.361084	2104.239258	50.418812
750.946960	1104.222900	3091.178711	2110.627197	50.650562
751.264282	1104.782104	3090.511719	2119.789307	51.115074
751.581482	1103.943237	3088.726563	2127.231445	51.556671
751.898621	1101.728027	3083.779785	2134.801758	52.121429
752.215698	1100.243774	3078.725586	2140.329590	52.569897
752.532715	1102.738770	3077.456787	2147.168945	52.890091
752.849792	1101.534424	3074.101318	2153.342041	53.321774
753.166748	1101.620483	3069.283447	2167.709229	54.180454
753.483643	1101.469849	3068.767090	2175.602783	54.599422
753.800476	1100.501953	3066.680664	2187.539551	55.286816
754.117310	1095.877808	3065.132568	2199.519775	56.043636
754.434082	1092.780518	3060.593994	2209.520996	56.750320
754.750732	1091.791138	3060.551025	2215.865723	57.095566
755.067383	1092.264404	3061.110352	2230.190430	57.796600
755.383911	1093.511963	3057.410889	2236.212646	58.185310
755.700562	1093.425903	3055.905273	2247.031250	58.783054
756.016968	1093.382935	3049.216309	2255.440674	59.414967
756.333435	1095.490601	3043.925537	2266.753906	60.113033
756.649780	1097.447754	3042.161621	2276.540039	60.630630
756.966064	1096.996094	3042.914795	2287.982422	61.204323
757.282410	1097.017578	3046.441650	2300.392334	61.729759
757.598633	1096.630493	3049.990723	2314.802979	62.362919
757.914795	1100.329956	3059.734131	2334.095947	62.966385
758.230896	1099.577148	3072.273438	2354.076416	63.593128
758.546936	1096.673706	3082.403320	2371.068115	64.177643
758.862976	1095.146606	3093.996094	2393.479492	64.954010
759.178894	1094.221558	3103.352295	2414.234619	65.700706
759.494812	1095.296997	3115.203125	2434.108154	66.280861
759.810669	1094.931274	3124.688232	2455.250732	67.018837
760.126526	1094.027832	3134.172852	2475.446777	67.711800
760.442261	1093.662354	3138.109131	2496.610596	68.622391
760.757935	1092.414917	3141.571777	2515.064453	69.426094
761.073608	1095.877808	3145.593750	2530.120117	69.972740
761.389160	1094.006592	3143.851563	2544.702393	70.771004
761.704712	1095.576538	3141.012451	2559.349609	71.562889
762.020203	1098.351074	3145.658447	2578.362549	72.290634
762.335571	1100.458862	3166.349365	2607.506104	72.949036
762.650940	1102.394653	3207.171631	2653.812744	73.709389
762.966370	1100.329956	3283.697021	2725.714111	74.443924
763.281677	1100.867676	3390.075928	2823.382080	75.244987
763.596863	1098.243652	3507.316162	2927.997070	75.952606
763.911987	1100.415894	3602.295898	3017.513428	76.626282
764.227112	1102.867798	3678.735352	3090.232178	77.153198
764.542236	1103.319458	3740.076416	3148.863281	77.578026
764.857178	1103.685059	3780.877441	3192.159180	78.009865
765.172119	1102.609863	3804.622070	3224.851318	78.542999
765.487061	1099.082397	3818.322754	3243.864014	78.874298
765.801880	1095.899292	3806.385742	3249.176514	79.442474
766.116760	1094.608643	3769.692871	3228.743896	79.778244
766.431458	1094.243042	3686.671875	3177.189209	80.347290
766.746155	1093.124634	3573.044678	3092.554932	80.624794
767.060791	1095.296997	3442.340576	3000.479492	81.173721
767.375427	1094.716309	3328.520264	2917.630615	81.605835
767.689941	1093.232300	3229.862549	2851.299805	82.282249
768.004395	1090.027466	3144.906006	2791.098633	82.782082
768.318848	1087.769165	3074.574463	2743.587402	83.340736
768.633179	1088.134888	3014.631836	2704.916016	83.923370
768.947632	1090.457764	2957.291260	2671.707520	84.702240
769.261841	1091.188965	2908.618408	2639.897217	85.214218
769.576111	1091.877197	2861.257813	2611.119385	85.862938
769.890259	1093.038818	2827.167725	2587.632324	86.186989
770.204285	1094.501221	2789.485596	2569.694580	87.032860
770.518433	1092.630127	2756.814697	2547.735107	87.436516
770.832458	1091.081543	2725.714111	2529.947754	88.023834
771.146362	1090.844849	2697.301758	2509.493652	88.309174
771.460205	1091.619263	2670.524170	2496.309082	88.966080
771.774109	1093.490356	2651.468262	2482.393555	89.147812
772.087952	1094.608765	2632.154053	2468.757324	89.372887
772.401672	1094.888550	2615.657227	2456.476318	89.532867
772.715332	1098.071411	2602.666504	2445.076904	89.526115
773.028992	1098.630737	2589.718506	2437.333984	89.780312
773.342590	1098.049927	2572.082031	2428.451172	90.255920
773.656128	1097.103638	2557.994385	2418.449951	90.447990
773.969604	1099.555664	2543.970947	2413.331055	90.955521
774.283020	1100.200928	2532.851563	2406.878662	91.207008
774.596375	1099.577148	2521.043701	2400.125244	91.493401
774.909729	1100.695557	2507.816162	2393.844971	91.900398
775.223022	1101.900024	2492.523926	2387.951904	92.480209
775.536194	1105.836060	2481.941895	2382.747070	92.791626
775.849304	1105.857544	2466.456055	2377.348633	93.450867
776.162476	1104.674561	2453.142822	2371.734863	93.962929
776.475525	1104.739014	2438.840088	2366.293213	94.562119
776.788513	1105.427246	2430.839111	2359.625977	94.627090
777.101440	1103.857178	2424.859863	2357.324463	94.887566
777.414307	1102.502075	2417.826660	2351.839844	94.983231
777.727173	1100.566406	2414.213379	2347.344482	94.909676
778.039978	1102.781738	2408.384521	2345.000244	95.145210
778.352722	1101.211792	2403.846191	2339.064209	95.026848
778.665405	1098.566284	2402.491455	2337.773438	95.036674
778.977966	1092.823608	2397.759521	2332.159912	94.972961
779.290649	1092.436401	2399.566162	2329.793945	94.662178
779.603149	1092.156860	2396.124756	2330.396240	94.959343
779.915588	1090.328613	2397.006836	2330.288818	94.894073
780.227966	1090.199585	2391.801514	2331.278076	95.350082
780.540405	1090.048950	2385.219971	2326.008789	95.428314
780.852722	1088.307007	2382.596191	2320.653320	95.214142
781.164917	1089.554321	2373.412354	2316.996826	95.605782
781.477173	1089.876953	2365.260742	2311.705811	95.800880
781.789246	1090.737305	2355.926270	2309.640869	96.341621
782.101379	1091.360962	2343.107666	2300.801025	96.620193
782.413452	1092.500977	2335.429199	2294.284180	96.689667
782.725403	1091.683716	2324.244873	2286.046631	96.900902
783.037292	1092.586914	2315.189941	2277.916504	96.951302
783.349182	1094.264648	2301.854980	2266.323975	97.057693
783.661072	1094.049561	2294.843262	2255.548340	96.727585
783.972839	1094.845337	2286.003662	2247.289063	96.749832
784.284546	1096.609009	2271.679443	2240.901367	97.380745
784.596191	1097.211182	2261.699463	2233.782227	97.602615
784.907898	1095.383057	2254.236084	2227.695557	97.709763
785.219421	1096.652100	2247.138428	2223.135742	97.913689
785.530884	1095.189453	2243.331787	2220.296875	97.993721
785.842346	1094.737793	2236.341553	2218.318115	98.421219
786.153748	1096.479858	2227.588135	2215.479004	98.929443
786.465149	1096.845581	2220.232178	2214.102295	99.454338
786.776428	1098.093018	2214.403320	2216.231445	100.163765
787.087646	1100.114746	2210.489014	2219.543945	100.815483
787.398804	1100.028809	2215.650879	2224.791992	100.819374
787.709961	1101.448242	2228.491211	2237.008545	100.755722
788.021057	1103.448486	2243.998535	2257.376709	101.172958
788.332031	1105.255127	2260.581299	2275.486328	101.290115
788.643005	1103.792725	2278.411377	2292.370117	101.188362
788.953918	1105.513306	2290.907715	2307.060059	101.362610
789.264832	1108.137329	2298.671875	2318.136719	101.634964
789.575623	1107.040527	2307.898926	2327.729248	101.651344
789.886353	1104.803589	2315.555664	2331.643799	101.328773
790.197083	1102.480835	2321.470459	2333.256836	100.966896
790.507690	1098.695313	2320.459473	2334.482666	101.147781
790.818359	1099.792236	2312.114258	2328.718750	101.369644
791.128845	1098.394287	2292.391357	2313.340576	101.754547
791.439331	1097.297363	2270.732666	2290.413086	101.677162
791.749756	1095.619629	2247.246338	2266.345459	101.658447
792.060120	1096.092896	2224.662842	2240.815430	101.431244
792.370483	1097.361694	2201.928711	2218.554688	101.505203
792.680786	1093.597778	2184.206055	2199.606201	101.412071
792.990967	1093.619263	2169.795898	2181.840576	101.119209
793.301086	1095.189453	2154.396240	2165.989014	101.094475
793.611267	1093.275269	2141.577393	2151.965332	100.990929
793.921326	1095.254028	2130.070557	2140.781494	101.035057
794.231323	1095.834839	2122.757568	2133.812744	101.076538
794.541260	1097.576782	2120.929443	2127.252930	100.617920
794.851074	1098.308105	2121.144287	2125.295898	100.405891
795.161011	1099.297607	2123.252197	2126.371094	100.304596
795.470764	1099.512573	2126.284912	2131.705078	100.527885
795.780518	1099.598755	2132.049072	2140.996338	100.866608
796.090149	1102.050659	2141.147217	2151.105225	100.958336
796.399780	1099.663208	2146.158447	2161.127930	101.430443
796.709412	1098.458618	2155.600586	2170.440918	101.403816
797.018860	1099.512573	2160.504395	2179.603271	101.800095
797.328308	1100.222412	2166.117920	2184.442627	101.719185
797.637756	1098.953369	2165.515625	2189.110107	102.212196
797.947205	1098.738403	2166.655518	2194.659180	102.622269
798.256470	1097.942505	2161.364502	2194.616211	103.126862
798.565674	1098.243652	2157.278076	2192.379150	103.314438
798.874817	1099.125488	2148.309082	2186.550293	103.644852
799.183960	1098.501831	2141.921387	2177.108398	103.372276
799.493103	1098.480225	2131.447021	2166.548096	103.398087
799.802124	1101.749512	2121.531494	2155.901611	103.370338
800.111084	1102.265503	2105.830811	2143.104492	103.714127
800.419983	1103.319458	2098.023438	2130.909180	103.306084
800.728821	1102.846313	2086.774658	2119.681885	103.344475
801.037659	1104.997070	2080.709473	2107.078125	102.702499
801.346436	1102.781738	2071.482666	2095.571289	102.486694
801.655151	1102.953979	2065.804443	2084.903564	101.983604
801.963745	1103.642090	2057.674316	2077.547852	102.083107
802.272400	1102.201050	2050.490479	2067.933594	101.839432
802.580933	1102.201050	2039.693359	2058.857178	102.044159
802.889404	1100.630981	2028.745972	2050.942383	102.391556
803.197815	1099.082520	2021.282837	2045.156616	102.588783
803.506226	1099.297607	2016.185425	2041.801270	102.793785
803.814575	1100.566528	2007.926147	2038.338623	103.351753
804.122864	1101.190308	2004.979614	2034.037109	103.215073
804.431030	1100.007324	2001.473877	2033.563965	103.559761
804.739197	1102.201172	2001.990112	2032.875732	103.432541
805.047241	1102.416138	2005.754028	2032.896973	103.004738
805.355408	1101.426758	2007.345703	2033.262817	102.860863
805.663391	1099.146973	2007.990601	2038.145020	103.317886
805.971313	1099.168457	2010.550049	2042.210205	103.473862
806.279175	1098.286621	2015.131226	2043.371582	103.080170
806.587036	1097.641479	2015.045410	2042.511353	102.993874
806.894836	1098.566284	2019.046021	2042.683228	102.567924
807.202576	1098.351074	2019.497314	2040.102295	102.236885
807.510193	1096.888550	2016.873535	2040.059082	102.520210
807.817810	1095.210938	2012.937622	2037.951172	102.725601
808.125427	1093.791504	2003.044067	2033.542236	103.354202
808.432922	1094.114136	1993.773804	2026.208130	103.605179
808.740295	1094.587280	1982.503540	2018.164063	104.016205
809.047729	1097.576904	1975.276978	2005.947388	103.494408
809.355103	1097.039185	1967.017944	1995.365601	103.258430
809.662415	1098.329590	1958.005981	1984.245972	103.052307
809.969604	1100.652466	1948.585449	1971.319580	102.681122
810.276794	1098.867310	1934.863403	1960.931274	103.118179
810.583923	1098.996460	1925.744141	1952.994629	103.296104
810.890991	1101.254761	1915.011597	1944.133301	103.578674
811.197998	1102.093628	1908.214844	1932.776978	103.046951
811.505005	1103.018433	1904.429321	1925.378418	102.614029
811.811829	1101.706421	1894.557129	1918.560547	103.027481
812.118713	1101.899902	1888.190918	1912.172607	103.049973
812.425537	1099.835205	1879.695313	1907.483643	103.563248
812.732300	1098.222168	1872.963257	1900.880737	103.603462
813.038940	1097.684448	1866.187988	1898.880493	104.254051
813.345581	1098.845825	1863.585571	1897.977051	104.497147
813.652100	1099.060913	1860.918823	1894.406738	104.395561
813.958740	1097.426270	1856.810913	1889.503052	104.305084
814.265137	1096.953125	1852.681152	1884.642090	104.229156
814.571533	1097.921021	1844.830811	1884.039795	105.249496
814.877930	1098.329590	1838.356934	1877.673462	105.312851
815.184265	1099.039429	1836.184448	1875.221802	105.295746
815.490540	1097.770386	1834.356323	1873.156982	105.267632
815.796692	1097.254150	1834.635864	1870.705078	104.891525
816.102844	1099.211426	1837.539551	1873.371948	104.853180
816.408936	1100.523438	1839.324341	1869.866089	104.133965
816.714966	1099.211426	1841.475098	1869.414429	103.764069
817.020935	1100.673950	1842.270996	1869.220825	103.634026
817.326843	1103.964722	1845.712402	1870.081177	103.285316
817.632690	1102.158081	1852.294067	1873.630005	102.844276
817.938477	1101.835449	1856.961304	1875.909790	102.509315
818.244263	1101.792480	1867.629272	1885.093750	102.280441
818.549988	1100.760010	1873.328857	1895.008911	102.806229
818.855652	1103.470093	1885.846558	1910.064575	103.095444
819.161194	1103.706665	1902.515503	1931.164063	103.586411
819.466797	1103.771118	1925.163330	1954.328125	103.550652
819.772278	1103.255005	1952.435425	1992.526489	104.721146
820.077698	1102.738770	1988.138794	2031.649658	104.914261
820.383057	1101.813843	2028.810669	2079.763428	105.496544
820.688354	1098.673706	2080.752441	2139.964355	106.029243
820.993652	1101.663330	2157.772705	2221.544434	106.038361
821.298828	1101.684814	2304.586670	2377.176270	106.034538
821.604004	1100.630981	2572.469482	2672.395508	106.789200
821.909058	1099.835205	2981.638184	3105.675049	106.591385
822.214111	1096.953125	3465.762695	3620.620850	106.537384
822.519165	1097.985474	3929.153320	4109.584473	106.373032
822.824036	1096.824097	4320.793457	4523.012207	106.272354
823.128906	1095.361450	4639.757813	4856.645020	106.119156
823.433716	1096.178833	4895.488281	5132.979980	106.250916
823.738525	1094.673340	5104.998047	5349.802734	106.104362
824.043213	1094.049683	5264.351074	5513.887207	105.983650
824.347900	1090.887817	5364.987793	5621.019043	105.990295
824.652466	1090.414551	5375.397949	5629.493164	105.929901
824.957031	1093.103149	5241.897461	5476.291504	105.649689
825.261536	1093.318237	4947.731445	5161.285156	105.540497
825.565979	1093.167725	4563.447266	4744.910645	105.229073
825.870300	1095.705688	4180.711426	4341.119141	105.199593
826.174622	1097.125122	3872.071045	4015.056885	105.152740
826.478821	1098.157593	3660.776367	3787.587646	104.948517
826.783142	1096.867188	3533.771240	3645.483643	104.584190
827.087280	1097.469482	3464.859375	3568.936768	104.396294
827.391357	1099.361938	3414.552246	3520.220947	104.564140
827.695435	1101.211670	3371.278320	3476.688965	104.643501
827.999451	1102.416138	3325.917725	3432.425537	104.790092
828.303406	1102.179565	3276.857910	3383.924805	104.923347
828.607239	1101.964478	3237.540771	3337.639648	104.687218
828.911011	1102.459106	3190.309326	3291.289795	104.836578
829.214844	1099.942749	3143.464844	3239.476807	104.698364
829.518616	1098.609375	3076.682617	3170.973633	104.766808
829.822205	1098.781372	2972.583496	3061.777344	104.760048
830.125793	1098.673706	2829.640869	2912.403809	104.781311
830.429382	1099.168457	2664.308838	2739.049072	104.775307
830.732849	1098.824341	2509.278564	2572.039307	104.449684
831.036316	1096.824097	2377.025635	2429.247314	104.079178
831.339661	1096.651978	2268.861816	2308.995850	103.423790
831.642944	1093.748413	2178.850830	2212.102051	103.064339
831.946228	1096.286377	2102.174561	2138.501709	103.611450
832.249512	1098.222046	2045.307129	2082.451660	103.921982
832.552673	1099.082275	2010.528564	2042.833862	103.544403
832.855774	1102.932373	1996.849487	2028.401978	103.529686
833.158813	1104.997192	2013.561401	2050.662842	104.083527
833.461731	1103.921753	2059.653076	2100.540039	104.278084
833.764771	1103.900269	2119.768066	2169.215088	104.867470
834.067627	1103.104492	2185.711914	2239.739990	104.990555
834.370422	1102.975464	2241.912354	2304.092041	105.459450
834.673157	1101.663452	2288.176025	2359.367432	106.000053
834.975891	1101.900024	2330.245850	2404.297852	106.028595
835.278564	1098.308105	2362.443115	2437.312744	105.922600
835.581177	1096.910156	2382.402588	2455.659180	105.698715
835.883728	1095.985229	2384.703857	2463.509521	106.115044
836.186218	1092.802002	2366.636963	2450.045410	106.547821
836.488647	1090.307129	2323.083252	2400.684570	106.294846
836.791077	1092.092285	2254.881348	2326.782959	106.183548
837.093384	1090.586792	2176.441650	2238.556885	105.720398
837.395630	1090.737305	2090.258789	2151.922607	106.169334
837.697815	1093.017090	2016.034790	2071.482666	106.007240
838.000061	1094.286255	1949.897705	1997.537842	105.567963
838.302124	1096.006714	1888.363281	1933.250366	105.665009
838.604126	1098.996338	1832.979980	1872.705078	105.412262
838.906128	1098.566284	1788.243042	1825.537964	105.407593
839.208069	1100.910645	1753.615112	1786.651611	105.061478
839.510010	1100.050293	1732.945801	1757.723145	103.914917
839.811829	1101.061157	1722.105835	1744.538696	103.612114
840.113586	1101.985962	1716.105103	1739.505981	103.810478
840.415222	1102.351685	1711.566895	1736.688354	104.123581
840.716919	1102.050537	1712.921875	1734.602051	103.549057
841.018555	1100.630981	1710.857056	1731.096436	103.316704
841.320068	1100.523560	1709.136353	1728.837891	103.237122
841.621521	1097.641357	1705.630737	1725.676270	103.297020
841.922974	1097.512329	1703.781128	1723.848022	103.309898
842.224365	1096.221802	1698.167480	1715.072632	102.808418
842.525635	1095.727173	1688.209351	1703.737915	102.620934
842.826965	1097.619873	1671.691040	1685.090332	102.334084
843.128174	1098.673706	1646.139526	1661.732788	102.848259
843.429260	1097.447754	1618.781250	1634.331543	102.982788
843.730408	1101.663208	1595.208496	1608.521851	102.697495
844.031433	1103.362427	1574.797241	1584.497314	102.057564
844.332397	1105.384277	1555.224976	1566.237061	102.447998
844.633362	1105.083130	1538.384277	1548.320801	102.293213
844.934204	1106.029419	1523.844604	1531.695190	101.878960
845.235046	1107.234009	1509.713989	1515.026245	101.319878
845.535828	1108.266357	1497.755371	1504.724121	101.789200
845.836487	1108.546021	1485.108521	1493.840942	102.318985
846.137146	1107.642700	1474.763428	1486.700195	103.251457
846.437744	1105.556396	1465.708496	1477.623901	103.308434
846.738281	1105.147583	1457.642944	1468.569092	103.099655
847.038757	1102.179565	1449.856934	1460.998169	103.204475
847.339172	1099.749146	1439.275024	1453.964966	104.326607
847.639526	1098.329590	1433.338867	1444.673706	103.383438
847.939819	1097.748901	1427.101563	1438.156738	103.356636
848.240112	1097.512207	1421.896606	1432.822754	103.368271
848.540283	1096.479980	1416.369141	1429.575073	104.128281
848.840393	1097.533813	1413.573120	1426.456299	104.076447
849.140564	1094.888428	1410.583374	1421.509521	103.460983
849.440552	1096.888672	1405.034302	1413.487061	102.743103
849.740540	1097.082153	1402.818970	1407.744385	101.611000
850.040405	1098.910400	1400.259644	1405.163452	101.627281
850.340210	1097.985596	1397.183838	1401.421021	101.416176
850.640137	1098.695435	1395.613770	1397.829224	100.746147
850.939819	1098.652344	1392.194092	1397.872192	101.934341
851.239502	1096.910156	1388.193481	1395.828979	102.621330
851.539185	1096.178955	1387.333130	1394.000732	102.290062
851.838745	1095.748779	1385.676880	1392.495239	102.351738
852.138245	1094.458130	1379.504272	1387.827881	102.920090
852.437744	1095.920776	1376.944824	1386.429810	103.375153
852.737122	1094.608643	1377.912598	1386.989136	103.203819
853.036499	1095.641113	1375.912354	1386.989136	103.952164
853.335815	1094.802246	1372.449585	1385.634155	104.748672
853.635010	1095.963623	1369.954712	1384.429688	105.283012
853.934204	1095.899170	1371.395630	1383.225342	104.293961
854.233276	1095.985229	1372.707886	1379.482910	102.448311
854.532410	1095.791748	1372.428223	1375.009277	100.933014
854.831482	1096.157349	1368.943848	1370.298828	100.496719
855.130371	1094.974487	1366.298340	1365.846802	99.833580
855.429260	1096.049927	1364.212158	1362.147339	99.230011
855.728088	1094.479736	1360.727783	1360.663208	99.975746
856.026855	1094.221558	1355.888550	1358.232910	100.895935
856.325623	1094.264526	1354.361450	1355.135620	100.297646
856.624329	1094.737793	1354.124878	1355.157227	100.397995
856.922913	1095.124878	1352.404175	1352.232056	99.933098
857.221436	1097.426270	1348.661743	1350.339355	100.667747
857.519958	1097.727417	1345.715088	1348.382202	101.075500
857.818420	1097.942383	1343.327759	1350.963135	103.111588
858.116821	1099.856567	1341.951172	1353.673218	104.841927
858.415161	1102.179565	1343.241699	1355.071289	104.907280
858.713379	1102.738770	1342.553589	1354.124878	104.825096
859.011658	1107.018799	1343.542847	1352.920410	103.964737
859.309814	1108.115723	1343.306274	1353.501099	104.334709
859.607910	1107.470581	1341.456543	1351.801880	104.421349
859.905945	1108.868652	1340.897339	1348.468262	103.262924
860.203979	1107.707153	1340.209106	1348.059692	103.376564
860.501953	1107.879272	1338.531494	1346.080811	103.273033
860.799744	1107.707153	1335.713989	1342.446167	102.952621
861.097656	1109.642822	1335.950439	1338.424072	101.093040
861.395325	1109.513794	1336.337646	1333.971802	98.956970
861.693115	1108.416870	1335.090088	1331.519897	98.424965
861.990784	1108.804199	1335.434326	1331.541382	98.282249
862.288330	1107.384521	1333.261963	1329.949707	98.533607
862.585815	1104.739136	1334.401855	1325.841797	96.272766
862.883301	1106.244629	1334.294434	1326.422485	96.548141
863.180786	1106.072632	1332.702881	1327.239746	97.589409
863.478149	1107.018799	1330.745605	1326.271973	98.000404
863.775452	1105.319824	1330.272339	1326.895630	98.498924
864.072693	1108.072876	1331.455200	1328.831299	98.825378
864.369873	1109.750366	1331.390747	1332.294067	100.407562
864.667114	1108.997681	1328.680664	1333.111450	102.016899
864.964111	1108.223511	1327.970947	1335.412964	103.386620
865.261169	1106.653198	1327.347168	1338.488525	105.048332
865.558105	1105.190796	1328.938843	1339.456299	104.700577
865.855042	1105.362793	1327.261230	1341.392090	106.368164
866.151917	1103.878662	1326.099731	1340.875854	106.649292
866.448730	1100.652466	1325.863159	1340.187622	106.360474
866.745422	1102.373047	1327.454590	1339.112183	105.179276
867.042114	1100.781616	1327.583862	1338.939941	105.007042
867.338806	1096.609009	1324.422241	1338.811035	106.316048
867.635376	1094.673218	1321.066895	1335.864380	106.536171
867.931824	1096.458496	1322.765991	1333.799683	104.875534
868.228271	1096.781128	1320.077515	1332.595215	105.605865
868.524658	1096.307861	1319.561401	1328.874146	104.171379
868.821045	1098.824341	1318.120361	1329.196899	105.050949
869.117310	1098.458618	1315.474731	1327.992554	105.768150
869.413574	1096.888550	1314.958740	1327.239746	105.631676
869.709717	1097.856567	1312.205566	1323.690918	105.358246
870.005859	1095.038940	1308.957886	1322.766113	106.454887
870.301880	1096.437012	1308.463257	1323.131714	106.918228
870.597900	1095.490601	1308.334106	1319.217285	105.113228
870.893860	1095.813232	1311.990479	1319.884033	103.651428
871.189636	1092.371948	1311.753906	1322.615479	104.950989
871.485535	1092.845093	1311.108643	1321.174438	104.611763
871.781311	1092.006348	1310.269897	1320.013184	104.463997
872.077026	1090.264160	1310.700073	1316.915894	102.819786
872.372681	1091.963379	1311.818481	1317.862183	102.748947
872.668274	1093.210815	1312.807861	1317.367432	102.076332
872.963806	1092.715942	1314.592896	1319.754761	102.326454
873.259338	1093.275269	1318.679565	1321.690552	101.335815
873.554688	1093.812988	1319.346191	1320.615234	100.562683
873.850098	1096.695190	1320.507813	1323.647949	101.403023
874.145447	1096.501465	1318.335449	1324.701782	102.869865
874.440674	1100.265503	1317.582520	1321.991821	102.028969
874.735840	1099.362183	1320.335693	1322.852051	101.138763
875.031006	1101.577393	1323.110107	1324.228638	100.504906
875.326050	1100.437378	1323.970581	1325.734253	100.789001
875.621094	1101.190186	1325.389893	1325.626587	100.105576
875.916077	1103.599121	1325.583618	1326.379395	100.358482
876.210999	1106.502686	1326.917114	1327.110596	100.087784
876.505798	1107.363037	1322.895142	1326.981567	101.895973
876.800598	1106.997192	1321.776855	1328.164551	102.974068
877.095337	1104.007690	1322.077881	1329.648560	103.471672
877.390015	1106.201538	1323.088745	1329.196777	102.816223
877.684692	1105.728516	1322.335938	1332.057495	104.488098
877.979187	1107.470581	1319.884033	1332.358521	105.872742
878.273804	1105.534790	1319.862549	1334.186646	106.683266
878.568237	1106.136963	1322.701660	1338.079834	107.100960
878.862610	1103.061401	1325.884766	1342.746948	107.567513
879.156921	1100.889160	1330.896118	1347.543335	107.237701
879.451172	1098.071533	1337.219604	1351.629761	106.025620
879.745422	1098.759888	1348.382202	1359.802856	104.575172
880.039612	1097.555298	1361.480591	1369.417114	103.007111
880.333679	1098.587769	1381.999146	1390.021851	102.830765
880.627686	1097.017578	1415.164673	1423.079590	102.487816
880.921692	1096.221802	1469.020752	1480.570679	103.098167
881.215698	1096.350830	1556.386353	1568.258911	102.580795
881.509460	1099.362183	1671.239380	1692.059326	103.640633
881.803345	1099.469604	1812.289063	1840.959351	104.022095
882.097046	1101.512817	1959.898804	1997.774292	104.412407
882.390808	1102.115112	2098.131104	2148.739258	105.081055
882.684448	1103.685059	2225.781250	2287.681152	105.516449
882.978027	1101.082642	2336.439941	2406.663818	105.684502
883.271545	1102.566772	2432.086426	2511.020752	105.937057
883.565002	1103.147583	2508.117432	2592.278320	105.990227
883.858398	1102.588379	2560.855225	2646.349365	105.862724
884.151733	1101.211670	2581.567383	2662.136230	105.442535
884.445068	1100.846069	2557.413818	2637.337646	105.487137
884.738281	1099.233032	2489.964600	2562.037842	105.182396
885.031433	1099.168335	2383.198486	2448.991699	105.123962
885.324585	1100.738403	2262.624268	2315.426758	104.544548
885.617676	1098.738281	2142.071777	2187.733398	104.376511
885.910645	1097.576904	2026.401489	2064.470947	104.098671
886.203552	1099.168457	1921.829590	1954.134644	103.926895
886.496521	1099.942749	1824.979004	1851.240112	103.622040
886.789368	1100.673950	1740.645996	1760.433228	103.091888
887.082153	1102.760254	1661.023071	1681.520264	103.671600
887.374817	1103.728149	1595.316040	1615.856201	104.178329
887.667480	1103.577637	1537.825073	1556.945679	104.403160
887.960083	1104.222900	1492.916382	1510.337769	104.482040
888.252625	1103.642212	1455.427734	1474.204224	105.337479
888.545166	1103.190552	1428.241699	1447.168457	105.822701
888.837524	1105.599487	1404.969849	1421.401855	105.488853
889.129883	1107.255493	1386.171875	1400.087402	104.989136
889.422241	1106.696411	1371.417358	1382.472290	104.176071
889.714478	1093.511841	1322.292847	1360.383545	116.649414
890.006714	1107.707153	1357.544556	1342.166382	93.844727
890.298767	1110.072998	1317.324585	1350.210205	115.867485
890.590881	1113.858398	1319.453735	1317.797607	99.194473
890.882935	1094.694824	1328.207642	1314.722046	94.224899
>>>>>End Processed Spectral Data<<<<<
