Jaz Data File
++++++++++++++++++++++++++++++++++++
Date: Mon Apr 22 19:27:47 2019
User: jaz
Dark Spectrum Present: Yes
Reference Spectrum Present: Yes
Processed Spectrum Present: Yes
Spectrometers: JAZA2928
Integration Time (usec): 40000 (JAZA2928)
Spectra Averaged: 10 (JAZA2928)
Boxcar Smoothing: 5 (JAZA2928)
Correct for Electrical Dark: No (JAZA2928)
Strobe/Lamp Enabled: Yes (JAZA2928)
Correct for Detector Non-linearity: No (JAZA2928)
Correct for Stray Light: No (JAZA2928)
Number of Pixels in Processed Spectrum: 2048
>>>>>Begin Processed Spectral Data<<<<<
W	D	R	S	P
190.104553	0.000000	0.000000	0.000000	0.000000
190.488098	0.000000	0.000000	0.000000	0.000000
190.871613	1077.423828	1084.994751	1058.969971	-243.746475
191.255096	1080.499390	1079.079956	1057.550293	1616.778442
191.638535	0.000000	0.000000	0.000000	0.000000
192.021942	903.294739	908.865295	886.583008	-300.001099
192.405334	1004.317993	1010.039124	988.423584	-277.819397
192.788696	1107.599609	1112.288330	1090.027466	-374.774811
193.172012	1111.471069	1116.052246	1096.264771	-331.929962
193.555313	1116.138306	1118.654663	1103.556152	-500.014557
193.938568	1122.375488	1122.956299	1109.277222	-2255.170166
194.321793	1125.386597	1126.505127	1113.428345	-1069.104004
194.704987	1126.655640	1129.473267	1114.912354	-416.779297
195.088150	1127.429810	1129.387207	1120.375366	-360.399139
195.471298	1126.505249	1131.710083	1120.396973	-117.357758
195.854401	1127.494629	1132.054199	1120.439941	-154.722641
196.237457	1129.064575	1128.957031	1121.687378	6859.705078
196.620499	1129.043091	1130.441040	1119.450562	-686.185791
197.003494	1127.171875	1130.140137	1118.095581	-305.778076
197.386475	1126.999878	1131.129395	1115.385620	-281.249817
197.769424	1126.419067	1132.441406	1111.707642	-244.280930
198.152344	1123.365112	1134.527832	1109.083618	-127.939201
198.535217	1120.934570	1135.947266	1108.502808	-82.808334
198.918076	1121.149658	1138.098022	1109.105103	-71.066185
199.300903	1121.838013	1139.668091	1107.728638	-79.132439
199.683670	1123.838257	1144.421387	1108.717896	-73.459969
200.066422	1123.730591	1145.023560	1110.524536	-62.020729
200.449142	1121.967041	1147.884277	1109.728760	-47.220627
200.831848	1122.719849	1149.174683	1112.718506	-37.805351
201.214508	1123.537109	1149.002686	1113.428223	-39.696281
201.597137	1122.891846	1150.120972	1114.159546	-32.069702
201.979736	1122.612183	1152.874146	1116.331787	-20.753431
202.362274	1122.633789	1149.088623	1118.052490	-17.317436
202.744827	1121.257202	1147.625977	1117.041626	-15.987000
203.127319	1119.171021	1146.055908	1114.310059	-18.080648
203.509796	1116.525513	1142.786621	1114.568237	-7.453133
203.892227	1113.406860	1136.872070	1112.611084	-3.391303
204.274643	1110.567749	1137.151489	1108.933228	-6.148576
204.657013	1110.804321	1134.850342	1107.578247	-13.416250
205.039352	1108.223389	1132.441406	1102.803345	-22.380213
205.421661	1104.932617	1135.796753	1102.265747	-8.640676
205.803940	1103.964722	1135.516968	1101.491333	-7.839025
206.186188	1103.771118	1133.344727	1099.921265	-13.017869
206.568405	1101.921387	1134.248169	1098.372559	-10.977982
206.950592	1103.297974	1136.119263	1098.523193	-14.547814
207.332748	1101.340698	1133.882446	1100.781616	-1.718045
207.714859	1099.964233	1136.269775	1098.975098	-2.724476
208.096939	1099.598511	1137.732422	1098.802979	-2.086154
208.478989	1098.695190	1137.280762	1099.813843	2.899147
208.861008	1098.931763	1138.291626	1099.663208	1.858353
209.243011	1099.318848	1140.765137	1101.018066	4.099809
209.624969	1098.652222	1139.410034	1101.125610	6.068502
210.006897	1098.480103	1140.377808	1102.437622	9.445671
210.388794	1097.469238	1141.345703	1102.351685	11.127711
210.770645	1097.426270	1141.603882	1103.986328	14.849283
211.152481	1097.146606	1140.549927	1103.082886	13.677016
211.534286	1097.404785	1143.152344	1100.609497	7.005208
211.916061	1097.490723	1141.238159	1103.534668	13.815541
212.297791	1097.985474	1142.119995	1102.846313	11.013691
212.679489	1097.125122	1143.195435	1104.395020	15.780005
213.061157	1093.662354	1142.313599	1105.341309	24.005459
213.442795	1093.812988	1142.786743	1106.459717	25.823481
213.824402	1094.071167	1142.829712	1106.137085	24.746264
214.205963	1094.823730	1141.496216	1104.803589	21.382744
214.587524	1093.705444	1141.195190	1106.115479	26.132029
214.969025	1094.952881	1142.937378	1104.480957	19.856571
215.350510	1093.554932	1145.948486	1105.900513	23.563168
215.731949	1092.823730	1144.572021	1106.244629	25.934959
216.113358	1092.221558	1147.841309	1104.566895	22.195959
216.494736	1093.361328	1147.239014	1105.921997	23.313305
216.876083	1093.124878	1145.324707	1104.287354	21.384123
217.257401	1094.823975	1146.765747	1104.782104	19.171717
217.638702	1094.910034	1149.389771	1104.351929	17.331020
218.019943	1095.791748	1151.841553	1103.835815	14.351642
218.401169	1094.006592	1152.142700	1105.685425	20.088778
218.782349	1094.372070	1154.788208	1105.642456	18.654594
219.163498	1094.436646	1158.272583	1108.567505	22.136213
219.544632	1098.286621	1158.659668	1108.631958	17.135689
219.925705	1102.416138	1162.423584	1112.266846	16.415810
220.306778	1103.104370	1163.929199	1112.503418	15.452650
220.687805	1101.082520	1168.661011	1114.245605	19.478218
221.068802	1101.770996	1176.640503	1115.858643	18.816267
221.449738	1101.985840	1182.598145	1118.805420	20.864780
221.830673	1099.340454	1186.620117	1122.203613	26.195288
222.211563	1098.394043	1191.932617	1127.128906	30.719801
222.592438	1098.759766	1200.084106	1129.817383	30.651684
222.973267	1099.060913	1206.730225	1131.882202	30.483421
223.354065	1097.727417	1211.655518	1132.054199	30.130215
223.734848	1093.791382	1217.828369	1133.731934	32.200516
224.115555	1090.436157	1228.302734	1134.785767	32.168499
224.496262	1092.694458	1238.497559	1136.936646	30.343790
224.876923	1092.178223	1246.498535	1139.732544	30.815334
225.257568	1091.016846	1255.639526	1142.614746	31.343130
225.638168	1088.113281	1265.554688	1145.518311	32.351540
226.018723	1090.479248	1277.147583	1149.776855	31.766291
226.399277	1092.328735	1291.923462	1152.680542	30.237175
226.779785	1094.759277	1309.861206	1157.283203	29.067116
227.160263	1093.726929	1333.046875	1165.778809	30.106926
227.540695	1093.103149	1363.351685	1175.801636	30.600901
227.921112	1091.984741	1408.217529	1189.631226	30.878038
228.301483	1092.501099	1466.525879	1211.332886	31.771099
228.681824	1092.006348	1543.460083	1240.132202	32.810860
229.062134	1095.339966	1631.212891	1270.802612	32.743332
229.442413	1095.404419	1713.438232	1299.128784	32.963303
229.822647	1099.469604	1782.349976	1320.722778	32.399990
230.202881	1100.846069	1832.011841	1335.907471	32.148853
230.583054	1100.674072	1871.651245	1350.382324	32.388538
230.963196	1098.372681	1904.106934	1360.383667	32.518288
231.343292	1097.576782	1930.819946	1367.954346	32.448818
231.723404	1097.146606	1946.348755	1371.739746	32.335426
232.103439	1098.372681	1940.670654	1370.535278	32.311913
232.483459	1098.630737	1913.054321	1359.286621	32.004951
232.863434	1096.802612	1867.650757	1340.832764	31.657358
233.243393	1091.662109	1814.934814	1321.432617	31.768171
233.623306	1092.909668	1767.294434	1304.333740	31.350660
234.003174	1092.242920	1737.763672	1294.095825	31.269777
234.383041	1089.382324	1724.880371	1288.847900	31.387283
234.762848	1090.930786	1717.675293	1284.503296	30.885393
235.142639	1091.855591	1711.932495	1282.718018	30.780445
235.522385	1094.135498	1708.491089	1282.567505	30.671490
235.902115	1095.834839	1710.212036	1282.008301	30.302795
236.281799	1095.641113	1716.384766	1283.664307	30.289991
236.661438	1096.178833	1729.009888	1284.868896	29.816814
237.041077	1095.576660	1740.946899	1287.750977	29.777374
237.420654	1098.458618	1747.033569	1287.794067	29.192532
237.800217	1097.963989	1755.550659	1290.159912	29.227467
238.179733	1098.351074	1761.530029	1290.052246	28.906401
238.559219	1100.372925	1769.509644	1292.525757	28.716528
238.938690	1098.265137	1782.220703	1293.622681	28.562901
239.318100	1096.630493	1800.158325	1299.472778	28.832163
239.697510	1097.017578	1821.687988	1302.742188	28.388714
240.076859	1097.168091	1847.260986	1312.463745	28.702532
240.456177	1098.178955	1891.976440	1324.207153	28.474291
240.835464	1096.651855	1948.263184	1341.090942	28.703127
241.214722	1097.275757	2024.745728	1364.577759	28.820557
241.593948	1097.963989	2132.092285	1394.108276	28.637093
241.973129	1097.856567	2259.333740	1430.908569	28.674864
242.352295	1097.297363	2406.750000	1474.440796	28.801609
242.731415	1097.856323	2553.327148	1515.456665	28.691771
243.110519	1095.877686	2674.417480	1551.503906	28.863777
243.489578	1095.877686	2769.440186	1576.453247	28.715723
243.868607	1096.049805	2835.943115	1595.186768	28.687792
244.247604	1097.684448	2886.035156	1606.414063	28.446859
244.626541	1098.910278	2917.953125	1615.017212	28.372446
245.005493	1099.792114	2945.719727	1621.534302	28.264500
245.384369	1100.114868	2970.948975	1627.448853	28.187105
245.763229	1100.609497	2998.909180	1636.503906	28.230232
246.142059	1102.760254	3052.937500	1649.924927	28.057177
246.520859	1102.351685	3154.261475	1675.454956	27.930239
246.899612	1100.889038	3308.366943	1716.685913	27.895947
247.278336	1101.942993	3494.518799	1769.208618	27.889008
247.657043	1102.394653	3664.540039	1816.375732	27.866531
248.035690	1101.405273	3803.309570	1855.305054	27.902534
248.414322	1100.867676	3921.002197	1887.889771	27.907253
248.792908	1099.297607	4008.367432	1913.226196	27.978998
249.171478	1099.835205	4061.642822	1929.615601	28.016012
249.550003	1101.104126	4068.827148	1932.131958	28.002203
249.928482	1100.588013	4035.661621	1920.109009	27.921650
250.306961	1099.620117	3942.724854	1894.449707	27.956394
250.685364	1099.362061	3780.747803	1851.971436	28.067926
251.063782	1100.652466	3577.324951	1795.706299	28.064020
251.442123	1101.168701	3379.536865	1740.452026	28.058825
251.820450	1102.416138	3241.261963	1702.856201	28.073090
252.198761	1102.201050	3168.177490	1683.757080	28.149208
252.576996	1101.276245	3111.740479	1668.572266	28.217165
252.955246	1101.921509	3063.153809	1655.689087	28.235695
253.333420	1101.039673	3017.792969	1643.235962	28.287224
253.711578	1100.437500	2990.306152	1634.374512	28.252600
254.089706	1100.308472	2965.872803	1629.104980	28.345123
254.467804	1098.716675	2948.537354	1625.039917	28.452663
254.845871	1099.856567	2933.202148	1620.286743	28.386911
255.223877	1098.996338	2907.005371	1610.952271	28.316006
255.601898	1100.480347	2870.334229	1596.090210	28.002869
255.979828	1098.265137	2818.026367	1578.862183	27.945568
256.357727	1098.630737	2763.826172	1562.537598	27.859003
256.735657	1098.480225	2741.457764	1555.719604	27.829924
257.113525	1098.071411	2758.492432	1556.623047	27.616589
257.491333	1098.480347	2812.197754	1568.237183	27.411570
257.869110	1097.835083	2891.799072	1589.014160	27.379539
258.246887	1097.684448	3007.146729	1620.953613	27.404007
258.624573	1097.232788	3174.092285	1664.378174	27.307838
259.002289	1097.275757	3402.142090	1723.890991	27.186621
259.379944	1098.566284	3704.265625	1810.632935	27.327278
259.757538	1098.415649	4068.052490	1909.075073	27.298269
260.135162	1099.318970	4428.032715	2007.882935	27.294744
260.512665	1100.760010	4715.939453	2082.472900	27.155302
260.890228	1099.792114	4904.715332	2134.285889	27.188295
261.267700	1101.147095	5016.622070	2162.482910	27.106182
261.645142	1101.942871	5083.039063	2180.270020	27.086187
262.022552	1103.211914	5120.677734	2187.131104	26.980171
262.399994	1102.717285	5125.904297	2186.335449	26.934322
262.777313	1103.857178	5080.715820	2174.118896	26.912239
263.154602	1104.911011	4961.216309	2140.157715	26.845560
263.531921	1102.824707	4760.159180	2079.397461	26.701763
263.909149	1102.459106	4480.791504	2002.355591	26.637297
264.286377	1101.491333	4192.583984	1921.549927	26.529732
264.663574	1099.878174	3972.277100	1861.606934	26.518906
265.040710	1101.921509	3845.767090	1823.452026	26.296322
265.417816	1099.168457	3795.782227	1810.353394	26.373259
265.794891	1099.340576	3797.803955	1808.052002	26.263519
266.171936	1099.104004	3841.508057	1818.505005	26.232494
266.548950	1099.921265	3899.708740	1831.625000	26.134258
266.925934	1101.383789	3954.425049	1843.927612	26.026396
267.302887	1100.329834	4020.368896	1858.832520	25.975771
267.679810	1102.308594	4091.776367	1876.125000	25.884754
268.056671	1102.652710	4176.216797	1896.837036	25.839199
268.433502	1101.749512	4266.658203	1916.947266	25.757385
268.810333	1101.684814	4350.517578	1939.337036	25.783175
269.187073	1099.039429	4426.677734	1956.048828	25.754284
269.563843	1101.362305	4488.276855	1970.738647	25.668682
269.940521	1100.588013	4541.895996	1984.632935	25.689211
270.317200	1099.899780	4605.710449	1999.774658	25.668098
270.693848	1099.146973	4713.035645	2026.035889	25.647964
271.070435	1097.705933	4884.304199	2066.019531	25.572124
271.447021	1095.856323	5082.371582	2114.154541	25.543568
271.823547	1093.920532	5251.705078	2154.503662	25.508371
272.200043	1092.931152	5382.043457	2186.442871	25.495060
272.576538	1096.501465	5496.100098	2215.349854	25.430693
272.952972	1096.630493	5606.415527	2239.180664	25.334913
273.329346	1099.641602	5698.835449	2260.817871	25.247387
273.705688	1097.490723	5766.155762	2277.013428	25.264668
274.082062	1094.221558	5809.837891	2286.885498	25.291794
274.458344	1094.049438	5806.568848	2284.992676	25.271900
274.834595	1093.060059	5748.755371	2269.786865	25.274996
275.210846	1093.748413	5652.141113	2243.826416	25.229902
275.587006	1095.361572	5538.041016	2215.306885	25.208778
275.963165	1096.135864	5473.688965	2195.067871	25.103796
276.339294	1095.920898	5444.265625	2185.582520	25.059229
276.715393	1094.329224	5440.265137	2178.463379	24.945930
277.091461	1093.942017	5437.361816	2177.086914	24.937605
277.467438	1092.931152	5444.867676	2178.183838	24.937237
277.843445	1094.372192	5460.289551	2180.054932	24.867229
278.219452	1097.361816	5481.604004	2182.033691	24.740236
278.595337	1097.275757	5513.521484	2185.862305	24.649593
278.971191	1097.318726	5547.805664	2188.228271	24.512140
279.347046	1096.716553	5572.969727	2191.432861	24.456087
279.722870	1095.727051	5607.189453	2196.056885	24.389648
280.098663	1096.953125	5631.234863	2204.380615	24.423437
280.474396	1098.222168	5683.004883	2215.134521	24.361294
280.850098	1099.727539	5749.679688	2234.104736	24.395460
281.225800	1099.770630	5852.595703	2254.171875	24.288738
281.601440	1099.125488	5983.816895	2286.025146	24.298355
281.977051	1098.996338	6153.665527	2324.761475	24.250156
282.352600	1100.265503	6314.695801	2363.067139	24.217443
282.728149	1102.996948	6448.454590	2395.242920	24.174656
283.103668	1104.007935	6547.198242	2420.300049	24.182364
283.479156	1102.588379	6633.079590	2440.195068	24.186037
283.854553	1102.502319	6720.380859	2460.089600	24.165480
284.229950	1098.480347	6819.877930	2481.210693	24.167704
284.605347	1096.501587	6916.750000	2502.245361	24.152641
284.980652	1094.888428	7007.728516	2520.613281	24.112354
285.355988	1092.500977	7095.331055	2540.895508	24.128529
285.731201	1094.243042	7173.210938	2559.714844	24.107248
286.106445	1094.888428	7234.551758	2572.039063	24.059149
286.481659	1094.802368	7309.464355	2585.976318	23.994450
286.856781	1091.490112	7380.248047	2601.591064	24.012707
287.231934	1093.942017	7436.878418	2613.807617	23.961546
287.607025	1097.254272	7468.667480	2616.905029	23.851078
287.982056	1100.114868	7471.699707	2615.291748	23.780220
288.357086	1103.577637	7457.009766	2607.763916	23.675177
288.732086	1104.201294	7427.049805	2601.849365	23.686287
289.107025	1104.373413	7399.476563	2592.751221	23.643423
289.481934	1106.137085	7369.988770	2583.416992	23.584209
289.856842	1104.395020	7367.579590	2574.448242	23.471338
290.231659	1103.276611	7383.409668	2576.448242	23.457651
290.606506	1102.717407	7399.583984	2581.416748	23.483097
290.981262	1104.029419	7420.532715	2584.062256	23.431204
291.355988	1103.341064	7460.408203	2592.364258	23.423115
291.730713	1101.276245	7499.531250	2603.441162	23.477728
292.105377	1100.996582	7523.040527	2611.936523	23.527399
292.480011	1102.115112	7531.126953	2617.206055	23.566467
292.854614	1101.340698	7544.418945	2624.841553	23.645544
293.229187	1102.093628	7573.949707	2640.477783	23.770370
293.603729	1104.115356	7617.632324	2659.361816	23.877214
293.978241	1103.771240	7652.840332	2680.934570	24.082251
294.352692	1101.964478	7681.683105	2701.345459	24.307741
294.727081	1101.061035	7708.525391	2720.853271	24.514582
295.101501	1098.609253	7761.865234	2751.480713	24.805763
295.475830	1095.512085	7848.133301	2789.894043	25.092211
295.850189	1095.038940	7991.893555	2839.319580	25.290958
296.224457	1091.683716	8203.381836	2910.962891	25.581501
296.598694	1089.403809	8463.350586	2996.435791	25.861753
296.972931	1089.016602	8729.597656	3080.381348	26.063002
297.347107	1088.586426	8935.946289	3150.132080	26.270563
297.721283	1087.898071	9061.037109	3202.525635	26.521893
298.095367	1089.769409	9098.051758	3228.679443	26.708727
298.469452	1092.737427	9080.931641	3240.594727	26.887896
298.843475	1092.199707	9037.636719	3240.853271	27.042610
299.217529	1094.587158	8972.337891	3234.163818	27.159740
299.591492	1096.436890	8892.672852	3221.625000	27.259155
299.965424	1098.135864	8774.442383	3201.837646	27.405128
300.339325	1102.179565	8594.958008	3159.853760	27.462101
300.713196	1103.513062	8374.263672	3109.030518	27.583363
301.087036	1105.448730	8138.126465	3052.851563	27.690773
301.460815	1104.975586	7937.585938	3001.640625	27.759010
301.834564	1103.771118	7774.533203	2958.431152	27.802820
302.208282	1103.125854	7649.119141	2926.900391	27.860929
302.582001	1103.297974	7531.814453	2892.724121	27.835754
302.955658	1103.297974	7423.306641	2867.904053	27.920944
303.329254	1100.889038	7332.241699	2843.686035	27.968197
303.702820	1101.276245	7248.747070	2821.381836	27.980703
304.076416	1100.910645	7176.007813	2804.154053	28.036480
304.449921	1099.491089	7122.452637	2787.614258	28.028126
304.823395	1099.749146	7062.165527	2768.923828	27.994936
305.196838	1099.426636	7003.878418	2748.921143	27.936455
305.570251	1097.921021	6932.858887	2733.349365	28.028204
305.943604	1096.479980	6870.485840	2710.873291	27.959675
306.316986	1096.350952	6825.146973	2695.194336	27.908890
306.690277	1094.759399	6800.218750	2686.246826	27.894115
307.063507	1094.200073	6800.971680	2681.773193	27.819111
307.436768	1095.038940	6830.372070	2687.193115	27.760448
307.809937	1092.328979	6880.078125	2699.796875	27.773628
308.183136	1093.081665	6951.484375	2715.218018	27.689054
308.556244	1091.640747	7039.259277	2739.285400	27.702595
308.929321	1092.802002	7145.702637	2763.310059	27.598473
309.302399	1091.963379	7244.488770	2791.829834	27.628759
309.675446	1093.597778	7353.104492	2814.305664	27.489511
310.048401	1095.167969	7449.568359	2842.416504	27.496670
310.421356	1093.662354	7553.624512	2869.086670	27.483511
310.794281	1094.049438	7670.606445	2901.090576	27.477009
311.167145	1096.264771	7784.168945	2930.556641	27.427006
311.539978	1100.437378	7864.242676	2952.365723	27.379978
311.912781	1102.588135	7910.098145	2959.958252	27.284134
312.285553	1101.147095	7899.667480	2957.979492	27.312302
312.658295	1102.308472	7851.940430	2945.612305	27.309694
313.031006	1101.254639	7786.728027	2930.470703	27.361053
313.403656	1101.792358	7728.354980	2910.317627	27.292057
313.776276	1101.663208	7684.435547	2898.208740	27.291624
314.148865	1102.029053	7688.415527	2899.176758	27.285791
314.521454	1105.040161	7694.351563	2898.724854	27.221125
314.893982	1103.147583	7677.596680	2891.046631	27.194658
315.266449	1101.018311	7620.212891	2874.420898	27.202787
315.638885	1095.899292	7539.772949	2848.998291	27.205671
316.011322	1094.544189	7452.429199	2828.845215	27.277956
316.383667	1094.759277	7385.065430	2810.369629	27.273876
316.756042	1094.458130	7327.316895	2794.217529	27.270943
317.128326	1094.049561	7277.848145	2780.172852	27.266788
317.500610	1094.329102	7220.959473	2763.031006	27.236862
317.872833	1094.157104	7145.443848	2745.157959	27.283468
318.245087	1094.608643	7047.453613	2715.627197	27.230989
318.617218	1093.468872	6948.925293	2690.720947	27.278011
318.989319	1094.780762	6877.604980	2671.944092	27.273237
319.361420	1097.684448	6835.212402	2657.877930	27.192783
319.733490	1100.889160	6807.423828	2652.457764	27.189331
320.105530	1099.792114	6786.690430	2642.327393	27.124369
320.477509	1100.566528	6764.343750	2632.325928	27.044838
320.849457	1101.512817	6742.125488	2622.948730	26.972883
321.221375	1099.899780	6731.974609	2615.807861	26.915625
321.593231	1100.200806	6729.565430	2614.022705	26.891523
321.965088	1100.802979	6731.823242	2610.409424	26.808754
322.336884	1102.459106	6746.857422	2610.753662	26.721972
322.708618	1100.265381	6786.432617	2618.840820	26.706488
323.080414	1101.254761	6844.159668	2632.562988	26.664351
323.452118	1102.179565	6947.871582	2661.598633	26.676382
323.823761	1099.899658	7085.007324	2694.097412	26.636076
324.195343	1102.846313	7229.239258	2732.854736	26.606331
324.566925	1101.061035	7372.160645	2767.547119	26.574064
324.938507	1099.189941	7509.081055	2798.604736	26.512383
325.310059	1099.964355	7620.814453	2827.769775	26.496628
325.681519	1099.663208	7736.399902	2857.128174	26.480860
326.052948	1098.802856	7852.091797	2883.153076	26.421944
326.424408	1094.458130	7916.723145	2899.993896	26.465342
326.795776	1097.275757	7936.703613	2904.919434	26.429750
327.167084	1095.705688	7906.787109	2897.240967	26.450062
327.538391	1093.490356	7825.529785	2873.517334	26.441124
327.909668	1095.296997	7721.903320	2843.728760	26.385025
328.280884	1095.813232	7621.073730	2813.703613	26.326771
328.652100	1096.802734	7529.922363	2788.732666	26.300303
329.023254	1097.856445	7453.332520	2768.967041	26.294027
329.394348	1098.200562	7390.443359	2750.104248	26.253019
329.765442	1097.834839	7310.196777	2732.403320	26.311546
330.136475	1098.351074	7226.937988	2709.260742	26.285173
330.507538	1099.878174	7159.510742	2693.280029	26.295353
330.878479	1097.619873	7106.687500	2680.289063	26.338017
331.249420	1098.673706	7078.705078	2672.976563	26.325996
331.620331	1097.168091	7080.082520	2674.847656	26.369749
331.991211	1096.092896	7099.223633	2683.084961	26.436073
332.362030	1094.716309	7135.120605	2694.506104	26.484814
332.732819	1093.877441	7177.190430	2710.271240	26.570946
333.103577	1092.888184	7218.851074	2724.187256	26.629269
333.474304	1093.103271	7245.328125	2736.855225	26.718010
333.845001	1093.103271	7266.728516	2742.081787	26.710052
334.215668	1095.318481	7282.107422	2752.943359	26.792976
334.586273	1096.221802	7310.819824	2763.482178	26.828129
334.956818	1097.490845	7336.048340	2770.300293	26.814041
335.327362	1096.437012	7358.523926	2779.183105	26.871969
335.697876	1099.534058	7373.127930	2782.172607	26.820967
336.068329	1099.964355	7380.677734	2783.097656	26.798441
336.438751	1099.964233	7374.892578	2785.571045	26.862568
336.809174	1103.233521	7369.923828	2787.183838	26.871447
337.179504	1103.018433	7381.000000	2792.732910	26.914932
337.549896	1103.469971	7413.283203	2799.744629	26.883120
337.920135	1105.814331	7465.849609	2812.907715	26.840942
338.290375	1104.115234	7520.394043	2824.865967	26.818516
338.660614	1103.835815	7566.679688	2834.996338	26.786360
339.030792	1104.975708	7605.523438	2845.083740	26.768637
339.400940	1107.556641	7646.431152	2855.730225	26.735085
339.771027	1106.309204	7679.596680	2865.430420	26.761665
340.141083	1106.825317	7714.590820	2879.131104	26.821560
340.511139	1107.965210	7751.798828	2888.379395	26.797995
340.881134	1105.642456	7796.600098	2899.993652	26.817554
341.251068	1105.599243	7825.829590	2906.037354	26.791315
341.621002	1104.373291	7840.841797	2912.274902	26.837526
341.990875	1101.233154	7849.101563	2914.683838	26.874424
342.360718	1099.964233	7858.995117	2918.555176	26.906090
342.730560	1100.136230	7879.062012	2926.362549	26.939760
343.100311	1097.834961	7921.325195	2938.622070	26.977207
343.470032	1097.383301	7984.279297	2958.130127	27.018658
343.839752	1097.125122	8068.074707	2982.885742	27.051702
344.209442	1098.028564	8161.526855	3008.523438	27.047432
344.579041	1096.523071	8264.938477	3034.806396	27.039215
344.948639	1095.813232	8365.853516	3061.691162	27.040813
345.318176	1098.845825	8455.262695	3087.586914	27.034100
345.687714	1098.286621	8552.909180	3114.837402	27.051012
346.057190	1098.200562	8625.068359	3137.420898	27.092548
346.426636	1100.136230	8678.581055	3153.487549	27.094627
346.796051	1099.297363	8703.013672	3162.241211	27.130732
347.165405	1099.985596	8698.797852	3159.574463	27.104088
347.534729	1099.598633	8657.610352	3147.465088	27.095306
347.904083	1099.770752	8593.752930	3129.849854	27.089457
348.273315	1099.211426	8511.786133	3106.879150	27.084620
348.642517	1099.491089	8436.227539	3086.597656	27.084339
349.011719	1099.749146	8361.422852	3065.089111	27.064558
349.380890	1096.781006	8308.834961	3055.625732	27.160706
349.749969	1097.942505	8260.614258	3045.667236	27.192713
350.119049	1101.147217	8238.375977	3041.774414	27.190207
350.488098	1102.308716	8235.384766	3046.269775	27.252773
350.857117	1103.534668	8238.632813	3052.636475	27.317099
351.226074	1102.179565	8268.012695	3068.573486	27.441246
351.595001	1102.910889	8313.008789	3082.252930	27.452360
351.963867	1102.910889	8365.336914	3100.233643	27.502144
352.332764	1099.813721	8432.206055	3121.547852	27.572639
352.701538	1099.146973	8501.246094	3142.432129	27.604132
353.070343	1100.738525	8591.322266	3174.844727	27.689512
353.439056	1100.867676	8685.075195	3201.235352	27.693964
353.807770	1101.233276	8792.744141	3233.368164	27.720623
354.176453	1100.243896	8898.822266	3266.361816	27.775806
354.545105	1096.781128	9022.581055	3299.290527	27.789110
354.913666	1096.931641	9173.868164	3338.822510	27.756699
355.282227	1098.652344	9334.511719	3383.924805	27.747833
355.650757	1095.770264	9501.285156	3435.307129	27.833357
356.019226	1095.899292	9686.339844	3486.453125	27.828070
356.387695	1097.275757	9897.461914	3547.106201	27.838394
356.756104	1097.727417	10147.257813	3622.513428	27.899637
357.124451	1096.458496	10424.130859	3700.738281	27.919933
357.492828	1095.856201	10681.905273	3778.532959	27.985218
357.861084	1096.716553	10896.963867	3835.765625	27.948776
358.229401	1096.436890	11065.134766	3880.566650	27.928720
358.597595	1100.028687	11179.878906	3919.474854	27.971111
358.965759	1098.308105	11285.785156	3954.618652	28.037468
359.333923	1097.576904	11397.927734	3989.956787	28.080402
359.702057	1099.770630	11556.829102	4032.607178	28.046476
360.070129	1098.329590	11736.874023	4092.593506	28.145428
360.438141	1100.695435	11947.889648	4156.687500	28.173111
360.806122	1102.717163	12195.875977	4231.427734	28.203962
361.174133	1104.502441	12475.975586	4319.718262	28.274401
361.542053	1106.201660	12787.734375	4409.406738	28.277153
361.909912	1104.782104	13059.295898	4498.600586	28.389431
362.277771	1104.072266	13289.452148	4568.996582	28.435095
362.645599	1102.523560	13435.535156	4607.667969	28.420832
363.013367	1101.684937	13487.328125	4620.508301	28.410500
363.381134	1101.878540	13454.527344	4613.840332	28.430841
363.748810	1100.824707	13341.522461	4582.933594	28.446981
364.116455	1101.792480	13151.778320	4528.948730	28.441162
364.484100	1100.136353	12877.100586	4451.863770	28.460032
364.851715	1097.426270	12500.042969	4345.635254	28.486521
365.219238	1095.641113	12017.209961	4200.627441	28.429857
365.586761	1094.071167	11496.714844	4053.319336	28.447077
365.954224	1092.587036	11045.755859	3915.947754	28.366451
366.321686	1092.113770	10687.518555	3812.601807	28.351990
366.689117	1093.275269	10452.758789	3747.023438	28.353575
367.056458	1096.824097	10290.286133	3698.522705	28.299446
367.423737	1097.533936	10172.636719	3662.109619	28.259468
367.791077	1098.630859	10063.891602	3628.815430	28.222097
368.158295	1099.362061	9978.162109	3600.424805	28.168928
368.525543	1099.899658	9899.936523	3576.356934	28.141441
368.892700	1102.222534	9826.788086	3551.665527	28.075243
369.259827	1103.233521	9775.147461	3539.686035	28.095903
369.626953	1104.567017	9742.949219	3529.641357	28.073246
369.994019	1105.083130	9712.256836	3523.662354	28.099573
370.361053	1105.814453	9696.125977	3519.618896	28.099150
370.728027	1104.201294	9690.146484	3523.275635	28.174814
371.094971	1102.545166	9704.665039	3531.383789	28.235350
371.461914	1099.792114	9732.152344	3539.126709	28.258024
371.828796	1099.964355	9764.951172	3552.160156	28.300055
372.195618	1099.383545	9808.225586	3562.613281	28.284241
372.562408	1099.598633	9839.046875	3573.431885	28.306515
372.929199	1098.867310	9875.116211	3584.723633	28.324816
373.295898	1096.544434	9908.454102	3595.133545	28.354683
373.662598	1097.576782	9953.125977	3600.790527	28.267179
374.029236	1098.093018	9996.227539	3616.878174	28.306889
374.395844	1098.802856	10033.027344	3630.686523	28.339155
374.762421	1100.566528	10077.097656	3639.763184	28.287060
375.128967	1099.555542	10134.545898	3656.496338	28.300428
375.495483	1103.448608	10215.415039	3682.025879	28.298800
375.861908	1101.125854	10344.572266	3720.740479	28.340239
376.228333	1100.609497	10513.862305	3776.166992	28.423306
376.594727	1098.265137	10751.439453	3844.261475	28.446566
376.961090	1097.770386	11016.181641	3920.679443	28.461304
377.327393	1101.211792	11269.352539	3992.386963	28.433668
377.693665	1099.620117	11461.527344	4055.362549	28.525082
378.059906	1100.243896	11601.781250	4097.797852	28.543955
378.426086	1101.190186	11685.490234	4123.865723	28.558105
378.792267	1100.781494	11717.967773	4137.222168	28.599297
379.158386	1100.200806	11706.439453	4137.996582	28.641596
379.524445	1098.006958	11674.457031	4132.770020	28.693590
379.890503	1099.964233	11605.610352	4118.553223	28.733013
380.256531	1100.996582	11494.047852	4089.797119	28.757683
380.622467	1102.953857	11331.468750	4047.985352	28.792368
380.988403	1103.255005	11130.669922	3999.355713	28.881826
381.354279	1101.104126	10936.257813	3949.865479	28.965092
381.720154	1099.426636	10784.260742	3914.678711	29.068665
382.085968	1100.738525	10692.442383	3893.406982	29.115458
382.451752	1099.491089	10663.148438	3889.708008	29.175207
382.817474	1100.028809	10677.924805	3900.117432	29.234901
383.183197	1101.512939	10747.503906	3924.142090	29.262199
383.548859	1101.211792	10817.749023	3951.780273	29.337286
383.914490	1099.491211	10895.329102	3977.847656	29.383463
384.280060	1099.276123	10966.520508	4002.238037	29.420189
384.645599	1098.802856	11036.163086	4029.725098	29.493973
385.011108	1096.781128	11120.754883	4061.105469	29.572346
385.376617	1095.426147	11219.089844	4093.904785	29.618511
385.742035	1095.684082	11332.500977	4133.716309	29.677509
386.107452	1093.361328	11437.826172	4168.730957	29.729616
386.472778	1093.210815	11530.417969	4204.864746	29.813089
386.838135	1090.823364	11626.559570	4242.095215	29.910315
387.203430	1090.328735	11692.825195	4271.519043	30.004166
387.568634	1089.446777	11741.561523	4298.876953	30.129511
387.933838	1091.296509	11771.308594	4322.406250	30.253805
388.299042	1091.855713	11806.624023	4348.000977	30.389320
388.664124	1089.403809	11833.939453	4369.229980	30.525528
389.029236	1092.931152	11843.661133	4383.145996	30.604570
389.394318	1094.114136	11856.931641	4402.438477	30.738459
389.759308	1094.157104	11859.254883	4418.569336	30.881393
390.124298	1094.415161	11897.474609	4446.874023	31.032495
390.489227	1096.178833	11985.441406	4488.663574	31.154404
390.854126	1096.350830	12100.639648	4540.691895	31.299988
391.218964	1097.748901	12246.528320	4605.560059	31.463633
391.583771	1097.641479	12404.568359	4663.287598	31.535059
391.948578	1094.372192	12542.930664	4722.585449	31.691442
392.313354	1092.436401	12655.502930	4764.332031	31.755379
392.678040	1094.522705	12759.365234	4808.617188	31.840073
393.042694	1091.554565	12871.121094	4858.343750	31.977316
393.407349	1093.705322	12997.244141	4912.651855	32.082447
393.771942	1094.630371	13137.218750	4968.207031	32.165649
394.136505	1093.985107	13233.640625	5015.460449	32.303020
394.501007	1091.145996	13250.416016	5034.881836	32.433987
394.865479	1092.113770	13191.269531	5027.160645	32.523315
395.229919	1090.715820	13059.208984	4992.489258	32.600372
395.594360	1094.264771	12900.953125	4958.527832	32.729443
395.958710	1098.007080	12755.558594	4919.405273	32.780453
396.323029	1098.953491	12622.725586	4894.993164	32.940945
396.687286	1099.254517	12495.181641	4865.140137	33.045895
397.051544	1100.932129	12373.447266	4836.491699	33.138649
397.415771	1098.888794	12218.524414	4803.261719	33.313797
397.779938	1099.426636	12045.384766	4763.536621	33.474548
398.144043	1100.803101	11876.718750	4721.617188	33.600986
398.508148	1099.383545	11731.345703	4688.687988	33.759567
398.872192	1099.039429	11617.761719	4669.159180	33.940620
399.236237	1099.297485	11542.204102	4660.900391	34.105476
399.600189	1097.060669	11490.456055	4657.845703	34.260075
399.964111	1095.920776	11451.311523	4660.061523	34.418217
400.328003	1094.866943	11420.555664	4669.159180	34.615536
400.691925	1093.081787	11410.338867	4679.999512	34.766197
401.055695	1093.554932	11395.217773	4692.839355	34.938869
401.419495	1093.404297	11390.186523	4702.453613	35.050262
401.783234	1092.522583	11416.532227	4720.046875	35.136780
402.146942	1093.490356	11432.211914	4738.414551	35.255077
402.510620	1096.071167	11475.981445	4766.913086	35.364872
402.874237	1096.910034	11545.322266	4801.304199	35.454136
403.237823	1097.942505	11646.604492	4852.687012	35.594509
403.601379	1097.899536	11783.717773	4912.931641	35.701824
403.964874	1097.598389	11953.416016	4985.736328	35.816170
404.328369	1098.845825	12137.160156	5056.368652	35.852604
404.691772	1101.899902	12298.964844	5132.571289	35.997574
405.055176	1100.394409	12461.372070	5199.482910	36.080421
405.418549	1100.760010	12608.122070	5261.727051	36.159172
405.781860	1100.953613	12710.436523	5314.120605	36.290741
406.145142	1100.372925	12804.383789	5359.782227	36.392731
406.508362	1096.910034	12858.259766	5390.087402	36.502419
406.871552	1096.071289	12872.971680	5409.100586	36.622787
407.234741	1095.533569	12855.744141	5414.069336	36.721584
407.597870	1096.286377	12795.436523	5409.079102	36.864155
407.960938	1099.082397	12714.909180	5390.539551	36.944912
408.323975	1098.759766	12628.490234	5373.719727	37.077709
408.686981	1099.318970	12567.297852	5362.922852	37.178341
409.049957	1099.405029	12529.293945	5364.901855	37.318798
409.412903	1100.050293	12531.552734	5378.559082	37.427353
409.775787	1099.942749	12562.309570	5396.733398	37.486065
410.138611	1100.652466	12608.766602	5424.026855	37.568054
410.501434	1103.900269	12662.795898	5456.611816	37.656811
410.864227	1104.609985	12703.165039	5487.948730	37.792114
411.226929	1104.502441	12739.277344	5514.791016	37.906090
411.589630	1104.696045	12787.863281	5532.771973	37.901333
411.952271	1103.835815	12802.446289	5550.279297	38.008305
412.314911	1103.083008	12808.704102	5565.356445	38.120773
412.677490	1101.577393	12819.889648	5578.153809	38.201542
413.040009	1104.545532	12832.342773	5584.305176	38.197796
413.402496	1102.523682	12817.157227	5581.057617	38.230255
413.764984	1102.652832	12790.637695	5577.938965	38.289631
414.127380	1100.953613	12777.344727	5576.841309	38.332802
414.489777	1100.329956	12783.412109	5583.702637	38.374912
414.852112	1101.104248	12831.394531	5597.251953	38.329380
415.214386	1100.932129	12908.696289	5624.459473	38.309772
415.576660	1100.222290	13008.063477	5668.960449	38.367477
415.938904	1098.695190	13161.844727	5726.967773	38.367031
416.301086	1101.211792	13343.672852	5790.416504	38.302795
416.663208	1101.512817	13534.774414	5857.371094	38.251091
417.025299	1097.964111	13747.102539	5940.047852	38.279949
417.387390	1097.641479	13993.647461	6033.758301	38.276321
417.749420	1097.383301	14281.855469	6152.203125	38.339188
418.111389	1097.576904	14608.261719	6274.540527	38.317554
418.473328	1096.738037	14982.374023	6415.504395	38.304092
418.835266	1094.673340	15378.788086	6579.438965	38.397655
419.197144	1096.781128	15816.389648	6747.351563	38.388046
419.558960	1096.092896	16293.288086	6932.278320	38.403042
419.920746	1095.684204	16814.921875	7142.971680	38.470615
420.282471	1095.899292	17418.888672	7388.742676	38.552029
420.644226	1094.608887	18049.289063	7640.257813	38.606739
421.005920	1092.393433	18652.761719	7888.761230	38.702873
421.367523	1092.909668	19205.388672	8117.671387	38.784100
421.729126	1092.436401	19689.105469	8312.341797	38.823647
422.090668	1091.640503	20103.029297	8495.138672	38.942436
422.452179	1092.414917	20437.283203	8643.608398	39.034607
422.813660	1092.156860	20766.935547	8784.120117	39.095551
423.175110	1089.382324	21078.695313	8926.245117	39.205265
423.536469	1089.016724	21354.472656	9054.605469	39.306244
423.897858	1088.328369	21574.929688	9159.866211	39.399109
424.259155	1086.242065	21651.544922	9212.517578	39.514496
424.620453	1086.134644	21666.791016	9246.952148	39.652855
424.981689	1091.188965	21630.486328	9251.577148	39.730610
425.342865	1092.092285	21562.048828	9245.532227	39.831249
425.704041	1091.769653	21472.617188	9228.949219	39.925621
426.065186	1093.769775	21369.960938	9204.086914	39.999214
426.426239	1094.565674	21230.953125	9164.792969	40.077835
426.787262	1096.522949	20996.988281	9083.339844	40.133820
427.148254	1096.888672	20678.130859	8978.875977	40.252743
427.509216	1098.028442	20293.246094	8845.935547	40.363739
427.870178	1098.222046	19842.652344	8670.537109	40.397682
428.231049	1097.942383	19410.876953	8498.170898	40.409847
428.591858	1100.179321	18984.113281	8326.666016	40.407703
428.952698	1098.910278	18575.439453	8165.613770	40.435394
429.313446	1099.189941	18204.597656	8015.960449	40.436161
429.674164	1101.985962	17855.242188	7879.514160	40.454990
430.034851	1101.147217	17533.355469	7749.755859	40.460831
430.395477	1100.244019	17253.707031	7640.021973	40.485298
430.756104	1099.297607	17029.400391	7556.033203	40.531662
431.116699	1097.297241	16851.013672	7473.679199	40.475410
431.477203	1095.727295	16712.544922	7414.102051	40.458786
431.837646	1097.318848	16644.773438	7393.906250	40.499153
432.198090	1098.243652	16616.832031	7390.012695	40.543438
432.558502	1095.619629	16627.585938	7397.218262	40.571800
432.918884	1095.641113	16653.998047	7419.349609	40.645092
433.279205	1094.049561	16710.177734	7461.914063	40.777485
433.639465	1093.533325	16786.314453	7502.112305	40.837753
433.999756	1095.060425	16865.056641	7554.119141	40.957897
434.359924	1097.211182	16953.216797	7608.641113	41.066013
434.720093	1097.899536	17034.044922	7652.195313	41.128490
435.080200	1099.641602	17095.513672	7699.017578	41.256744
435.440277	1101.211670	17160.146484	7739.345703	41.336079
435.800354	1099.275879	17185.830078	7769.951660	41.467400
436.160370	1097.340210	17192.820313	7794.686035	41.610100
436.520325	1099.189819	17192.820313	7826.173828	41.799046
436.880249	1098.265137	17205.078125	7848.499512	41.909187
437.240112	1098.050171	17215.617188	7870.179199	42.017067
437.599976	1098.265137	17262.482422	7909.798340	42.139580
437.959808	1097.662964	17333.457031	7954.620117	42.233582
438.319519	1096.350952	17413.857422	8003.809082	42.331577
438.679260	1091.145996	17536.646484	8076.937012	42.478436
439.038940	1092.586914	17707.978516	8166.776367	42.576126
439.398590	1092.414795	17931.275391	8285.887695	42.719471
439.758179	1092.866577	18226.859375	8434.981445	42.851162
440.117767	1095.124878	18574.494141	8606.013672	42.970020
440.477295	1095.490601	18934.453125	8773.905273	43.042942
440.836792	1095.920776	19279.357422	8948.269531	43.184071
441.196198	1098.867310	19575.050781	9098.224609	43.295506
441.555603	1098.544800	19804.392578	9218.905273	43.410812
441.914978	1098.265137	19959.164063	9317.413086	43.577713
442.274323	1098.738403	20082.167969	9390.454102	43.678703
442.633575	1103.728149	20140.388672	9441.427734	43.798119
442.992859	1103.685181	20138.429688	9472.420898	43.965580
443.352051	1103.384033	20087.412109	9469.839844	44.071030
443.711182	1105.491943	19969.117188	9438.975586	44.177528
444.070313	1103.921753	19825.337891	9395.292969	44.288162
444.429382	1103.771240	19678.630859	9356.579102	44.429989
444.788452	1103.448608	19573.458984	9326.983398	44.523720
445.147430	1101.641968	19542.746094	9332.662109	44.634098
445.506409	1097.963989	19594.320313	9375.633789	44.752979
445.865295	1094.264771	19736.939453	9448.160156	44.810608
446.224182	1092.888184	19956.279297	9563.207031	44.903477
446.583038	1093.899048	20226.097656	9691.157227	44.936066
446.941833	1092.630005	20505.294922	9827.712891	44.996826
447.300598	1093.597778	20762.875000	9962.654297	45.090912
447.659302	1091.877197	20991.054688	10076.475586	45.150604
448.018005	1093.791504	21158.558594	10159.796875	45.183708
448.376648	1093.597900	21260.806641	10216.211914	45.234886
448.735229	1096.652100	21288.230469	10239.312500	45.279572
449.093781	1098.157715	21246.203125	10236.236328	45.354664
449.452301	1100.308350	21122.595703	10190.811523	45.401920
449.810791	1103.577759	20923.970703	10108.951172	45.434887
450.169220	1103.900269	20623.998047	9984.699219	45.495667
450.527618	1102.373169	20295.289063	9854.424805	45.600426
450.885956	1103.706665	20003.423828	9729.032227	45.637325
451.244263	1103.771118	19716.507813	9605.834961	45.678741
451.602539	1104.781982	19494.673828	9511.802734	45.715443
451.960785	1104.480835	19310.414063	9441.298828	45.791763
452.318970	1108.094238	19172.310547	9386.882813	45.829769
452.677124	1104.609863	19023.412109	9330.381836	45.905811
453.035248	1104.222778	18869.242188	9259.061523	45.903912
453.393311	1105.599243	18696.167969	9199.936523	46.015213
453.751312	1104.695923	18529.070313	9130.787109	46.062435
454.109314	1107.212402	18388.814453	9074.436523	46.102348
454.467285	1109.169800	18245.613281	9014.622070	46.132397
454.825195	1108.739502	18072.367188	8944.980469	46.194374
455.183044	1109.943848	17904.023438	8868.044922	46.195450
455.540894	1106.545654	17691.955078	8776.055664	46.242508
455.898651	1106.674683	17504.232422	8692.947266	46.264645
456.256378	1101.856934	17306.982422	8604.615234	46.298676
456.614105	1103.061401	17179.052734	8546.391602	46.300911
456.971771	1104.050781	17093.775391	8517.249023	46.362263
457.329407	1101.749512	17093.128906	8516.087891	46.364597
457.686981	1101.684814	17167.417969	8554.500977	46.389519
458.044525	1099.598633	17346.685547	8639.652344	46.408649
458.402008	1099.189941	17633.281250	8769.194336	46.389027
458.759460	1098.458618	18066.625000	8971.563477	46.399269
459.116913	1096.329468	18630.761719	9240.584961	46.447216
459.474274	1098.286621	19308.283203	9561.313477	46.474625
459.831635	1098.630859	19928.597656	9853.628906	46.495026
460.188904	1098.738403	20480.904297	10121.425781	46.551491
460.546173	1098.587769	20918.871094	10334.162109	46.596581
460.903381	1097.684448	21253.000000	10489.407227	46.596752
461.260559	1098.093262	21482.876953	10595.936523	46.592812
461.617706	1101.082764	21610.376953	10658.546875	46.600647
461.974762	1100.803101	21586.716797	10652.501953	46.625690
462.331848	1099.017822	21431.537109	10597.592773	46.716175
462.688843	1099.856812	21097.753906	10448.864258	46.749954
463.045837	1099.856812	20608.511719	10226.321289	46.781620
463.402740	1100.028931	20001.488281	9947.899414	46.810513
463.759613	1098.759888	19425.611328	9689.308594	46.874111
464.116486	1099.017944	18915.269531	9453.666016	46.893414
464.473267	1100.222290	18506.187500	9266.998047	46.919411
464.830048	1099.899658	18187.908203	9129.000977	46.986763
465.186737	1101.491333	17932.179688	9015.031250	47.018520
465.543457	1098.910522	17749.082031	8937.085938	47.075642
465.900085	1096.135864	17683.847656	8917.987305	47.154495
466.256683	1093.877563	17708.130859	8925.019531	47.135082
466.613251	1093.081665	17779.880859	8965.626953	47.178284
466.969757	1092.156738	17868.923828	9013.417969	47.215656
467.326233	1092.974121	17954.439453	9058.993164	47.243931
467.682678	1093.468750	18007.349609	9091.922852	47.289291
468.039093	1094.329102	18032.878906	9113.774414	47.344341
468.395416	1091.554688	18023.759766	9111.495117	47.365009
468.751740	1089.511353	18002.896484	9106.032227	47.397495
469.108032	1089.511353	17967.236328	9098.955078	47.455708
469.464233	1089.877075	17925.876953	9088.458984	47.508804
469.820435	1095.770264	17833.671875	9045.485352	47.495289
470.176575	1097.533936	17685.136719	8982.596680	47.535873
470.532715	1099.340576	17518.494141	8909.426758	47.566921
470.888763	1103.470093	17376.755859	8848.150391	47.591373
471.244751	1103.190430	17260.076172	8802.961914	47.656284
471.600769	1103.534668	17199.617188	8774.592773	47.657921
471.956696	1104.029297	17199.033203	8777.389648	47.675419
472.312592	1104.717651	17266.589844	8820.275391	47.739258
472.668457	1105.964966	17356.882813	8882.670898	47.853951
473.024292	1107.126465	17486.939453	8950.313477	47.883251
473.380035	1106.954468	17572.779297	9009.266602	47.992203
473.735779	1106.007935	17660.789063	9070.844727	48.112003
474.091492	1104.953979	17747.638672	9127.345703	48.203709
474.447113	1102.179565	17866.193359	9194.945313	48.274632
474.802765	1098.394165	17964.505859	9270.438477	48.452450
475.158295	1098.587769	18087.423828	9354.040039	48.593395
475.513824	1099.491089	18213.548828	9438.136719	48.723949
475.869324	1098.114624	18362.341797	9527.094727	48.823387
476.224762	1098.781372	18489.732422	9615.879883	48.974312
476.580170	1100.007202	18638.607422	9710.515625	49.094620
476.935516	1099.082397	18791.574219	9815.689453	49.267269
477.290863	1099.469604	19031.796875	9948.135742	49.344769
477.646118	1096.867065	19283.615234	10091.744141	49.458412
478.001373	1097.533936	19573.435547	10264.454102	49.615547
478.356537	1098.609253	19855.857422	10437.443359	49.787868
478.711700	1100.501953	20156.970703	10608.475586	49.893681
479.066833	1099.254395	20462.707031	10780.238281	49.996166
479.421875	1097.555298	20789.414063	10968.712891	50.128113
479.776917	1098.544678	21111.562500	11174.008789	50.344551
480.131897	1098.222046	21482.617188	11393.777344	50.507046
480.486847	1097.146606	21913.056641	11645.980469	50.676785
480.841766	1098.781372	22435.853516	11949.308594	50.852936
481.196594	1098.953491	23050.208984	12311.934570	51.081276
481.551453	1098.093262	23857.900391	12766.012695	51.265461
481.906219	1095.211060	24897.945313	13349.311523	51.481903
482.260986	1094.479736	26347.199219	14163.755859	51.753937
482.615662	1092.135254	28416.939453	15334.050781	52.120834
482.970306	1093.640991	31148.205078	16968.490234	52.820095
483.324951	1093.619385	34243.640625	18968.113281	53.920010
483.679504	1092.673096	37399.925781	21072.738281	55.030502
484.034027	1092.113892	40339.859375	22985.601563	55.782791
484.388519	1091.597656	42912.027344	24581.044922	56.167397
484.742981	1089.898560	45000.953125	25850.019531	56.386990
485.097351	1088.586426	46633.558594	26848.033203	56.558266
485.451721	1092.759033	47805.765625	27598.494141	56.741657
485.806030	1096.501465	48616.898438	28142.087891	56.913635
486.160309	1096.114258	49095.046875	28526.287109	57.147461
486.514557	1098.135986	49099.496094	28664.349609	57.427982
486.868744	1098.265137	48648.539063	28479.701172	57.584183
487.222931	1097.856567	47882.898438	27998.654297	57.498711
487.577026	1099.168579	46976.785156	27363.562500	57.248821
487.931122	1100.071777	46097.984375	26818.806641	57.155392
488.285126	1101.964478	45262.703125	26401.466797	57.289581
488.639099	1103.642090	44510.371094	26099.685547	57.585640
488.993042	1103.706543	43848.421875	25841.310547	57.872894
489.346954	1101.727905	43273.769531	25643.179688	58.193649
489.700836	1102.609741	42718.285156	25476.511719	58.569042
490.054626	1103.233521	42111.195313	25265.001953	58.919701
490.408417	1100.889160	41562.910156	25087.751953	59.282417
490.762146	1102.093628	41075.882813	24964.619141	59.695431
491.115814	1103.491577	40714.914063	24909.042969	60.097694
491.469513	1103.599121	40368.914063	24870.757813	60.529648
491.823090	1102.007324	39915.222656	24767.242188	60.972107
492.176666	1101.813965	39426.257813	24624.623047	61.378078
492.530182	1100.609375	38929.359375	24458.126953	61.745411
492.883698	1099.813721	38390.558594	24280.664063	62.162472
493.237091	1099.017944	37800.746094	24063.154297	62.569637
493.590515	1099.232910	37121.738281	23759.826172	62.906769
493.943878	1098.243652	36263.609375	23345.710938	63.265278
494.297150	1101.233276	35105.378906	22739.033203	63.632835
494.650452	1100.630981	33647.519531	21924.695313	63.981735
495.003662	1100.093262	31910.638672	20925.066406	64.344765
495.356873	1099.792114	30217.744141	19936.707031	64.691757
495.710022	1100.028687	28792.429688	19124.929688	65.089699
496.063110	1098.329590	27677.992188	18535.953125	65.605133
496.416168	1098.867188	26896.216797	18151.992188	66.104172
496.769165	1100.544922	26366.167969	17920.351563	66.571907
497.122162	1100.286865	26053.806641	17812.271484	66.972450
497.475098	1100.566528	25846.599609	17792.828125	67.454292
497.828003	1100.803223	25765.664063	17849.220703	67.903961
498.180847	1099.190063	25726.951172	17920.263672	68.301270
498.533661	1096.479980	25654.445313	17977.261719	68.738518
498.886444	1097.598267	25577.039063	18021.804688	69.136414
499.239136	1096.221802	25444.720703	18030.429688	69.549286
499.591827	1097.727417	25234.654297	17968.462891	69.895958
499.944427	1098.222168	24928.873047	17832.511719	70.221703
500.297089	1096.243286	24563.923828	17659.542969	70.579193
500.649628	1095.899292	24183.425781	17479.757813	70.964111
501.002136	1097.017700	23780.343750	17281.753906	71.350807
501.354584	1097.232788	23425.330078	17101.431641	71.677399
501.707001	1100.394409	23066.189453	16913.083984	71.987785
502.059387	1102.523804	22777.572266	16768.681641	72.277382
502.411682	1104.524048	22528.509766	16645.310547	72.539192
502.764038	1104.265747	22331.023438	16567.042969	72.845688
503.116302	1104.480957	22180.294922	16514.691406	73.117989
503.468475	1104.803589	22081.445313	16504.539063	73.413727
503.820709	1104.954102	22042.277344	16530.886719	73.676712
504.172852	1105.943481	22012.984375	16561.363281	73.924477
504.524902	1106.136963	22011.242188	16600.142578	74.115891
504.876953	1104.588379	22025.222656	16650.623047	74.309578
505.228912	1102.631226	22043.330078	16694.373047	74.456642
505.580872	1100.222290	22069.484375	16742.871094	74.597992
505.932770	1096.953125	22046.945313	16762.529297	74.776047
506.284698	1098.996460	22020.857422	16772.228516	74.913185
506.636505	1100.695557	22023.373047	16789.736328	74.985817
506.988342	1100.179443	22017.480469	16815.933594	75.132797
507.340088	1100.136353	22023.845703	16846.238281	75.254829
507.691772	1100.674072	22037.267578	16872.175781	75.329834
508.043396	1099.684692	22092.435547	16925.279297	75.386002
508.395050	1100.308472	22172.833984	16990.107422	75.405289
508.746582	1101.555786	22285.621094	17092.312500	75.484840
509.098114	1101.039551	22428.003906	17217.919922	75.570442
509.449646	1099.405151	22588.648438	17343.611328	75.592262
509.801086	1100.200806	22787.533203	17499.285156	75.615959
510.152557	1097.447754	22997.281250	17660.984375	75.633163
510.503906	1094.909790	23199.820313	17806.226563	75.600021
510.855194	1096.114136	23391.392578	17945.964844	75.575874
511.206482	1096.028076	23587.716797	18077.574219	75.501427
511.557709	1094.587158	23787.632813	18225.720703	75.490677
511.908844	1096.458496	23983.898438	18357.867188	75.418694
512.260010	1095.275513	24123.050781	18465.298828	75.430748
512.611206	1094.415161	24226.591797	18529.392578	75.371109
512.962219	1096.178711	24295.806641	18554.105469	75.250885
513.313232	1099.512573	24345.337891	18577.656250	75.188316
513.664246	1099.899780	24347.125000	18569.439453	75.146774
514.015137	1101.663330	24320.863281	18531.888672	75.068153
514.366028	1103.362549	24279.220703	18497.904297	75.054573
514.716919	1103.319458	24214.181641	18436.070313	74.998283
515.067688	1103.706665	24113.310547	18349.544922	74.950607
515.418396	1106.158569	24022.310547	18257.917969	74.845726
515.769104	1105.857422	23951.248047	18185.501953	74.761887
516.119812	1105.857544	23936.923828	18141.085938	74.614250
516.470459	1104.136719	24019.449219	18177.585938	74.506729
516.821106	1103.943237	24165.898438	18275.275391	74.457397
517.171631	1102.631348	24438.595703	18458.544922	74.374100
517.522095	1104.072266	24824.949219	18714.662109	74.240891
517.872559	1101.104126	25355.875000	19085.976563	74.149834
518.222961	1099.491089	25922.587891	19463.205078	73.978340
518.573364	1099.878296	26497.068359	19833.681641	73.763290
518.923645	1097.447876	27009.025391	20172.025391	73.614113
519.273987	1095.813232	27444.949219	20442.232422	73.423355
519.624207	1095.017334	27744.255859	20625.048828	73.285515
519.974487	1094.845215	27967.314453	20760.228516	73.180412
520.324646	1097.146606	28054.812500	20779.478516	73.012001
520.674744	1099.426392	28052.123047	20721.814453	72.803062
521.024780	1100.351196	27905.179688	20563.751953	72.611549
521.374878	1100.415771	27644.673828	20315.914063	72.390411
521.724792	1102.588013	27274.068359	19984.519531	72.146973
522.074707	1100.544800	26863.738281	19638.908203	71.956779
522.424744	1100.136230	26471.169922	19322.675781	71.824188
522.774536	1100.265381	26182.986328	19062.945313	71.613762
523.124329	1099.082520	25963.087891	18855.650391	71.414749
523.474182	1100.846191	25892.238281	18753.269531	71.203842
523.823914	1101.426880	25940.138672	18732.193359	70.981003
524.173523	1102.029175	26151.929688	18828.482422	70.764565
524.523132	1100.588013	26546.710938	19062.705078	70.588814
524.872803	1100.007324	27100.238281	19405.029297	70.403305
525.222290	1098.544678	27838.675781	19874.869141	70.217773
525.571777	1098.695190	28641.482422	20391.751953	70.047585
525.921326	1100.544800	29516.044922	20953.261719	69.865799
526.270752	1100.996582	30439.126953	21537.054688	69.656990
526.620178	1103.706543	31463.101563	22196.406250	69.476677
526.969482	1103.663574	32721.966797	23029.068359	69.344025
527.318787	1102.416138	34311.453125	24080.681641	69.192810
527.668030	1102.416138	36333.511719	25489.804688	69.221207
528.017212	1100.588013	38582.175781	27162.355469	69.532188
528.366394	1098.243652	40807.421875	28853.812500	69.897110
528.715515	1099.964233	42803.152344	30303.001953	70.025909
529.064636	1102.201050	44375.453125	31387.117188	69.985298
529.413635	1101.125732	45543.597656	32151.769531	69.867050
529.762695	1100.652466	46308.406250	32599.332031	69.675392
530.111633	1098.028442	46743.621094	32821.058594	69.498558
530.460510	1096.415405	46786.746094	32772.753906	69.328316
530.809387	1096.996216	46388.996094	32410.898438	69.137825
531.158142	1095.017456	45484.238281	31702.443359	68.952377
531.506958	1094.006470	44063.546875	30578.775391	68.617844
531.855652	1096.759521	42402.140625	29175.033203	67.977272
532.204407	1096.049683	40807.140625	27779.355469	67.193588
532.552979	1095.081909	39555.570313	26695.242188	66.562233
532.901611	1093.963379	38680.625000	25943.300781	66.112122
533.250183	1090.522217	38107.992188	25431.386719	65.755081
533.598755	1091.511597	37671.503906	25059.279297	65.521523
533.947205	1093.834473	37317.117188	24733.300781	65.260422
534.295593	1093.770020	37026.246094	24469.632813	65.054977
534.643982	1093.146362	36790.921875	24232.056641	64.818909
534.992249	1098.329590	36565.519531	24023.363281	64.637299
535.340576	1099.211426	36345.882813	23808.779297	64.430389
535.688843	1096.867065	36093.421875	23571.566406	64.219749
536.037048	1098.351074	35689.480469	23234.513672	63.993755
536.385315	1097.727417	35053.160156	22731.849609	63.713287
536.733398	1093.404297	34230.691406	22111.687500	63.427891
537.081421	1097.963989	33336.515625	21443.882813	63.110523
537.429443	1098.781372	32512.695313	20839.054688	62.839268
537.777466	1099.964233	31796.349609	20316.324219	62.601376
538.125427	1099.491089	31195.392578	19859.623047	62.334507
538.473267	1100.652466	30718.154297	19505.253906	62.140965
538.821167	1096.157349	30342.189453	19197.326172	61.892735
539.169006	1093.490356	30042.281250	18938.712891	61.644104
539.516846	1095.404541	29785.906250	18717.675781	61.421970
539.864502	1094.393677	29725.533203	18596.951172	61.131191
540.212219	1093.597778	29960.894531	18666.142578	60.873539
540.559875	1096.415527	30618.244141	18994.398438	60.626266
540.907410	1095.189453	31609.419922	19533.861328	60.426468
541.254944	1091.812866	32749.218750	20157.033203	60.223572
541.602478	1088.629517	33840.988281	20756.892578	60.051441
541.949951	1091.081543	34812.960938	21280.636719	59.870789
542.297363	1090.995483	35665.558594	21727.701172	59.687538
542.644714	1090.952393	36393.113281	22104.546875	59.524952
542.992126	1094.909912	36898.488281	22346.726563	59.356682
543.339355	1094.909912	37133.890625	22421.576172	59.176662
543.686646	1095.641113	36962.300781	22250.607422	58.982262
544.033813	1096.028320	36350.503906	21815.373047	58.770817
544.380920	1098.544800	35273.101563	21104.810547	58.541401
544.728027	1098.157593	33893.148438	20215.216797	58.292614
545.075134	1099.577026	32485.080078	19293.554688	57.969368
545.422180	1102.609741	31191.500000	18469.515625	57.718666
545.769165	1100.136230	30101.513672	17770.828125	57.482414
546.116150	1101.512695	29163.873047	17151.998047	57.195782
546.463013	1103.620605	28333.876953	16601.197266	56.913074
546.809875	1101.147095	27652.351563	16139.829102	56.640297
547.156677	1100.222290	27041.158203	15735.089844	56.416111
547.503418	1099.340576	26523.564453	15399.886719	56.247719
547.850098	1099.555664	26053.443359	15086.686523	56.051914
548.196777	1099.060913	25603.150391	14795.596680	55.894897
548.543396	1099.684448	25154.019531	14500.204102	55.709373
548.890015	1099.921143	24654.173828	14188.336914	55.567104
549.236633	1099.577026	24106.105469	13829.971680	55.333832
549.583069	1099.383545	23500.394531	13443.815430	55.106583
549.929504	1100.953613	22837.970703	13040.024414	54.925060
550.275879	1100.846191	22184.296875	12632.059570	54.693195
550.622253	1102.136597	21534.345703	12235.688477	54.490200
550.968567	1102.953979	20971.779297	11875.063477	54.216133
551.314819	1105.255249	20489.205078	11566.810547	53.970196
551.661072	1104.029297	20128.861328	11328.953125	53.745148
552.007263	1102.029175	19904.488281	11153.209961	53.456734
552.353394	1103.190430	19757.716797	11034.356445	53.237297
552.699524	1104.480957	19663.253906	10936.582031	52.978188
553.045593	1102.373169	19617.462891	10871.970703	52.765598
553.391602	1104.631470	19596.880859	10820.202148	52.538605
553.737549	1101.168579	19576.876953	10774.839844	52.358860
554.083435	1101.770996	19533.453125	10716.511719	52.164204
554.429321	1103.706543	19478.607422	10651.168945	51.959263
554.775146	1101.942993	19381.414063	10567.933594	51.784817
555.120972	1101.018188	19274.023438	10471.792969	51.564251
555.466675	1102.115112	19112.755859	10361.972656	51.413261
555.812439	1104.222900	18910.880859	10225.267578	51.222664
556.158081	1103.556274	18680.765625	10069.162109	51.006992
556.503662	1102.824829	18449.339844	9920.563477	50.832909
556.849182	1104.739136	18225.054688	9773.318359	50.633289
557.194702	1103.061401	18018.554688	9634.656250	50.436569
557.540161	1104.588501	17818.185547	9504.231445	50.256340
557.885620	1104.330322	17654.017578	9389.894531	50.064777
558.231018	1102.050537	17501.242188	9279.365234	49.864132
558.576355	1100.265381	17381.789063	9198.258789	49.737320
558.921692	1102.115112	17289.044922	9125.690430	49.568233
559.266968	1101.985962	17192.560547	9044.002930	49.358196
559.612183	1100.007324	17111.517578	8974.403320	49.179596
559.957336	1100.157837	17059.187500	8924.977539	49.030674
560.302429	1099.211426	17023.355469	8884.950195	48.892666
560.647522	1098.673706	17005.095703	8849.676758	48.728764
560.992554	1097.211182	16996.341797	8820.210938	48.574982
561.337524	1097.168213	17005.804688	8794.832031	48.386700
561.682434	1095.275513	17022.130859	8775.474609	48.221691
562.027344	1095.662720	17028.236328	8757.256836	48.087612
562.372253	1099.039307	17038.152344	8731.102539	47.882610
562.717102	1099.189941	17022.064453	8705.465820	47.769489
563.061829	1097.813354	17045.335938	8690.819336	47.612450
563.406494	1096.974609	17039.208984	8667.977539	47.490223
563.751160	1093.253784	17025.033203	8637.155273	47.351280
564.095825	1093.963501	17028.648438	8616.702148	47.209839
564.440369	1093.060059	17044.304688	8596.635742	47.040691
564.784973	1095.146362	17087.515625	8597.516602	46.912186
565.129456	1094.329224	17191.763672	8621.563477	46.760460
565.473877	1093.705444	17318.017578	8660.321289	46.637512
565.818298	1091.167480	17494.449219	8728.716797	46.561108
566.162659	1090.801880	17690.904297	8799.457031	46.437397
566.507019	1087.661621	17885.035156	8872.110352	46.343250
566.851196	1090.844849	18033.029297	8920.568359	46.214371
567.195435	1090.930786	18181.650391	8971.433594	46.109840
567.539612	1094.350586	18281.232422	8998.792969	45.991135
567.883789	1093.038574	18350.337891	9002.469727	45.832382
568.227844	1094.350708	18373.931641	8999.006836	45.745651
568.571960	1094.243042	18368.382813	8979.886719	45.649990
568.915955	1094.888306	18297.125000	8931.128906	45.553616
569.259888	1096.587402	18214.556641	8879.488281	45.466263
569.603821	1099.405151	18094.542969	8804.941406	45.339649
569.947632	1099.426514	17961.880859	8736.501953	45.290409
570.291504	1100.544922	17867.480469	8669.417969	45.141659
570.635193	1097.146606	17825.111328	8644.081055	45.115677
570.979004	1099.275879	17849.824219	8634.274414	44.983593
571.322632	1100.695435	17954.826172	8664.641602	44.878887
571.666321	1101.190186	18077.617188	8713.036133	44.837734
572.009949	1102.072021	18221.482422	8770.720703	44.795052
572.353455	1102.566772	18347.908203	8819.673828	44.748936
572.696960	1101.254761	18457.728516	8863.270508	44.721153
573.040405	1099.146973	18533.201172	8894.027344	44.710655
573.383850	1098.587769	18599.574219	8904.351563	44.601849
573.727173	1099.297607	18644.417969	8908.653320	44.510124
574.070557	1099.577148	18657.710938	8912.954102	44.500046
574.413879	1100.953735	18657.667969	8900.500977	44.424870
574.757019	1099.813721	18610.478516	8873.702148	44.395168
575.100281	1097.447876	18509.691406	8823.587891	44.371880
575.443420	1097.125122	18375.201172	8755.514648	44.324318
575.786499	1094.458130	18211.888672	8669.311523	44.252285
576.129517	1091.361084	18045.138672	8576.977539	44.153088
576.472534	1090.909302	17876.083984	8487.954102	44.068920
576.815491	1091.296509	17689.091797	8390.652344	43.977867
577.158447	1090.221191	17486.445313	8298.963867	43.965870
577.501343	1090.049072	17278.958984	8192.542969	43.872589
577.844116	1089.167236	17046.132813	8073.236328	43.768154
578.187012	1089.769531	16777.798828	7938.962402	43.658722
578.529724	1090.479370	16485.935547	7797.762207	43.566639
578.872375	1090.285645	16187.790039	7657.636230	43.499580
579.215027	1092.199951	15902.677734	7524.716797	43.432201
579.557617	1093.834473	15631.097656	7394.163574	43.339169
579.900146	1097.426270	15371.777344	7277.503418	43.294975
580.242676	1098.200684	15135.146484	7163.769043	43.211456
580.585144	1098.372681	14925.915039	7067.327637	43.167145
580.927612	1099.964355	14731.781250	6971.745605	43.074093
581.269958	1099.598633	14558.878906	6890.143555	43.022694
581.612305	1099.770752	14418.152344	6821.877930	42.963985
581.954590	1099.125488	14297.750000	6765.160645	42.928982
582.296814	1099.512573	14190.812500	6719.241699	42.927204
582.639038	1100.200806	14103.037109	6672.762207	42.856510
582.981140	1099.340576	14021.628906	6626.326172	42.770950
583.323242	1099.512573	13931.920898	6587.912598	42.769836
583.665283	1098.265015	13851.415039	6548.789551	42.738651
584.007324	1100.028687	13781.985352	6521.367188	42.748436
584.349304	1102.007446	13709.204102	6485.126465	42.698780
584.691284	1102.308472	13636.271484	6460.606445	42.750229
585.033142	1102.351685	13574.391602	6436.367188	42.767788
585.374939	1104.566895	13519.954102	6412.687012	42.754368
585.716736	1107.836060	13466.011719	6387.673340	42.723438
586.058411	1106.567139	13411.962891	6360.551758	42.696590
586.400085	1110.137451	13364.902344	6339.043457	42.668354
586.741760	1109.212769	13321.413086	6325.450195	42.713329
587.083374	1109.234253	13313.434570	6321.278320	42.706970
587.424988	1108.954590	13301.734375	6314.073242	42.690174
587.766541	1107.018799	13296.334961	6314.739258	42.723648
588.107971	1106.717773	13323.178711	6321.148926	42.683647
588.449341	1105.964966	13351.696289	6327.148926	42.636768
588.790710	1102.932373	13396.068359	6343.065430	42.626495
589.132080	1100.415894	13431.727539	6360.336426	42.654995
589.473267	1097.619873	13485.625977	6384.618652	42.678371
589.814514	1098.308105	13539.355469	6408.708008	42.684509
590.155762	1094.866943	13599.190430	6431.484863	42.678185
590.496948	1095.662720	13625.881836	6442.669922	42.672897
590.838013	1093.791504	13636.012695	6448.218750	42.691223
591.179077	1093.425903	13644.377930	6452.863770	42.701447
591.520081	1093.124756	13635.905273	6446.992188	42.684853
591.861023	1092.909668	13604.050781	6432.582520	42.679344
592.201965	1094.049683	13567.380859	6421.591797	42.711460
592.542847	1094.350708	13520.362305	6403.029785	42.722309
592.883606	1094.350586	13474.616211	6377.348633	42.672737
593.224365	1093.812988	13432.461914	6360.056641	42.680878
593.565125	1095.038940	13414.565430	6349.883301	42.654594
593.905823	1093.662354	13405.166016	6340.312500	42.615837
594.246521	1093.640991	13429.277344	6346.120117	42.579716
594.587097	1095.813232	13479.755859	6360.422363	42.511578
594.927612	1095.060425	13530.147461	6381.823242	42.514885
595.268127	1098.501831	13617.537109	6412.643555	42.448490
595.608582	1096.738159	13737.702148	6466.930176	42.482456
595.948975	1097.361816	13919.186523	6538.293945	42.434929
596.289307	1097.921021	14138.355469	6634.434570	42.456512
596.629700	1097.920898	14373.543945	6740.684570	42.504700
596.969971	1098.695190	14583.634766	6825.468750	42.467922
597.310242	1095.791748	14748.256836	6896.660645	42.489536
597.650391	1097.017700	14833.452148	6940.903320	42.542957
597.990540	1098.157715	14878.662109	6957.593750	42.519753
598.330627	1096.910278	14868.209961	6950.086426	42.502716
598.670654	1098.071655	14827.321289	6932.213867	42.494251
599.010620	1096.802612	14715.005859	6886.659180	42.515568
599.350525	1097.211182	14560.815430	6814.306641	42.463337
599.690491	1095.447510	14334.487305	6715.434570	42.450111
600.030334	1095.963745	14053.934570	6593.612305	42.426769
600.370178	1098.437134	13753.231445	6462.154785	42.384869
600.710022	1097.920898	13462.032227	6337.837891	42.380054
601.049683	1100.523438	13202.603516	6226.771484	42.358406
601.389343	1100.222290	13015.827148	6144.137695	42.330338
601.728943	1098.458618	12878.240234	6084.129883	42.323971
602.068542	1099.340454	12808.490234	6053.179688	42.307423
602.408081	1099.555542	12813.306641	6051.846680	42.277584
602.747498	1096.587402	12897.833984	6082.882813	42.252277
603.087036	1097.426270	13028.324219	6143.987305	42.298248
603.426453	1096.200317	13228.691406	6228.664063	42.303463
603.765869	1096.049683	13460.613281	6325.578613	42.294487
604.105103	1095.404419	13732.733398	6445.207520	42.333340
604.444336	1095.038940	14025.156250	6574.642578	42.378605
604.783569	1092.694580	14310.224609	6691.754395	42.360859
605.122681	1093.339722	14537.800781	6786.476074	42.345589
605.461792	1093.898926	14714.596680	6863.882813	42.361885
605.800842	1091.619141	14821.641602	6913.373047	42.401634
606.139954	1091.188965	14841.731445	6924.062500	42.419224
606.478943	1092.458008	14791.166016	6901.436035	42.405300
606.817932	1092.909668	14669.818359	6849.343262	42.398708
607.156799	1096.307861	14492.224609	6770.838867	42.360157
607.495605	1098.050049	14283.812500	6678.784668	42.323940
607.834412	1097.770386	14040.190430	6565.759766	42.248585
608.173157	1099.641602	13796.268555	6454.820801	42.177967
608.511841	1100.394409	13598.674805	6375.822266	42.209229
608.850464	1098.394165	13492.187500	6324.052734	42.163513
609.189148	1099.856567	13428.931641	6295.231445	42.139210
609.527710	1100.674072	13402.199219	6274.520020	42.058571
609.866211	1099.684692	13397.660156	6271.443848	42.053745
610.204712	1098.544800	13401.832031	6270.390137	42.036289
610.543091	1097.619873	13421.490234	6270.906250	41.977772
610.881409	1095.705566	13409.467773	6266.195313	41.989521
611.219788	1093.963623	13372.667969	6253.505859	42.020248
611.558044	1093.812988	13309.347656	6231.093750	42.055305
611.896301	1091.705078	13199.097656	6187.519043	42.088451
612.234436	1092.737671	13027.894531	6103.637695	41.984364
612.572693	1094.694824	12793.499023	6008.959473	42.006554
612.910767	1094.221558	12539.918945	5899.031738	41.979183
613.248840	1094.178589	12277.156250	5794.374023	42.029911
613.586792	1096.888550	12025.425781	5684.704102	41.980141
613.924805	1098.695190	11788.512695	5592.929688	42.042198
614.262695	1099.727661	11571.411133	5504.337891	42.062103
614.600525	1101.254761	11383.238281	5427.468262	42.075668
614.938293	1102.953979	11231.972656	5359.954590	42.027767
615.276123	1103.040039	11102.236328	5301.775391	41.990726
615.613892	1100.824707	10995.621094	5249.424805	41.927086
615.951538	1099.362183	10904.834961	5210.409180	41.926044
616.289185	1099.835205	10831.686523	5177.867188	41.903969
616.626770	1097.641479	10767.162109	5151.218750	41.921181
616.964294	1097.727417	10728.683594	5132.550293	41.894310
617.301819	1096.781128	10697.540039	5118.053711	41.884945
617.639221	1097.619873	10677.108398	5104.482422	41.827522
617.976624	1097.211060	10657.708008	5095.642090	41.822418
618.313965	1096.243286	10649.468750	5090.157227	41.806969
618.651306	1096.028198	10634.735352	5084.307129	41.811523
618.988525	1094.178589	10620.928711	5079.726074	41.835331
619.325684	1097.297363	10602.753906	5077.983398	41.877903
619.662964	1099.921387	10589.075195	5079.338379	41.936478
620.000000	1099.813721	10570.235352	5074.671875	41.971291
620.337097	1098.974854	10547.738281	5067.466797	42.000118
620.674133	1097.942505	10512.743164	5053.615234	42.015472
621.011047	1097.017578	10483.148438	5044.065918	42.051922
621.347961	1096.092773	10448.735352	5031.031738	42.073017
621.684875	1094.737793	10412.816406	5015.998047	42.082287
622.021729	1095.813232	10378.791016	4999.888184	42.056278
622.358521	1095.684204	10344.764648	4980.208496	41.999035
622.695313	1097.103638	10306.308594	4965.389648	42.004562
623.031982	1096.824097	10284.176758	4951.108398	41.952065
623.368652	1095.296997	10261.485352	4936.827148	41.909790
623.705261	1095.963745	10251.548828	4930.697266	41.884090
624.041748	1097.469238	10251.785156	4925.105469	41.812366
624.378296	1099.340454	10255.355469	4927.535645	41.810715
624.714722	1099.426636	10275.638672	4932.697266	41.773998
625.051147	1101.190186	10313.256836	4946.290527	41.739826
625.387512	1100.501953	10365.477539	4969.476074	41.759140
625.723877	1098.609253	10452.929688	5005.114746	41.761509
626.060120	1099.770630	10549.522461	5050.195801	41.804539
626.396301	1098.716797	10676.248047	5100.180664	41.779701
626.732483	1099.362183	10795.445313	5152.982910	41.806786
627.068604	1102.287109	10906.147461	5203.461914	41.832245
627.404724	1102.631348	11006.245117	5244.004883	41.816795
627.740662	1102.609863	11092.771484	5280.353516	41.818577
628.076721	1104.029175	11155.273438	5303.022461	41.775856
628.412720	1104.889526	11191.256836	5311.475586	41.705658
628.748596	1103.620605	11195.687500	5311.948730	41.699371
629.084473	1105.943481	11178.266602	5300.527832	41.644657
629.420227	1107.277100	11111.333984	5273.169922	41.642033
629.755981	1106.911377	11027.991211	5237.939453	41.638897
630.091675	1108.180298	10910.987305	5190.169922	41.641029
630.427307	1110.503174	10777.874023	5135.754395	41.637497
630.762939	1106.266113	10644.050781	5078.521484	41.647568
631.098450	1105.362671	10515.711914	5022.514648	41.625996
631.434021	1104.781982	10400.235352	4976.229492	41.648830
631.769470	1103.685059	10291.620117	4931.643555	41.662880
632.104980	1102.846313	10191.930664	4891.294434	41.681297
632.440308	1102.029053	10108.780273	4856.063965	41.680233
632.775635	1101.813965	10030.147461	4829.179199	41.747601
633.110901	1099.211426	9979.409180	4806.466797	41.747444
633.446106	1098.480103	9941.985352	4787.604004	41.715633
633.781250	1099.641602	9918.605469	4770.053223	41.619534
634.116394	1099.232910	9898.128906	4761.234863	41.618877
634.451538	1102.158081	9885.289063	4758.181152	41.625507
634.786560	1102.867798	9865.500977	4748.803711	41.607769
635.121582	1102.502075	9830.788086	4735.791016	41.626602
635.456543	1102.308594	9802.785156	4725.983398	41.649155
635.791443	1103.534424	9758.627930	4710.863281	41.678680
636.126221	1104.502441	9707.848633	4692.452637	41.704128
636.461060	1105.190674	9659.993164	4667.503418	41.641087
636.795776	1107.190918	9596.716797	4638.145020	41.591892
637.130493	1105.943481	9518.750000	4604.828613	41.589989
637.465210	1103.878784	9428.092773	4574.954102	41.698536
637.799805	1102.028931	9344.297852	4537.186035	41.677326
638.134399	1101.233276	9254.458984	4495.933594	41.636284
638.468933	1101.254761	9165.372070	4461.112305	41.664291
638.803345	1101.125610	9083.641602	4425.043457	41.639977
639.137756	1100.050293	9002.297852	4390.458008	41.638885
639.472168	1100.394409	8935.709961	4363.723633	41.648983
639.806519	1100.007324	8868.152344	4331.676758	41.601559
640.140747	1096.695190	8796.789063	4300.597656	41.608616
640.474976	1094.071167	8722.736328	4277.476563	41.729519
640.809204	1094.759277	8651.587891	4251.473145	41.772999
641.143372	1095.899292	8599.172852	4224.673828	41.698792
641.477478	1095.770264	8539.037109	4199.380371	41.696880
641.811462	1095.469116	8489.138672	4178.969238	41.704597
642.145447	1096.630615	8438.615234	4159.870117	41.722229
642.479370	1098.974976	8393.835938	4140.878418	41.699265
642.813293	1100.846069	8347.163086	4122.187988	41.694862
643.147095	1100.846191	8300.597656	4103.131836	41.699852
643.480957	1101.039673	8259.368164	4087.388184	41.718517
643.814758	1104.373413	8223.168945	4073.235840	41.704559
644.148438	1105.362793	8195.423828	4055.749756	41.612999
644.482117	1105.986450	8168.646973	4043.490479	41.592030
644.815735	1103.061401	8131.695801	4030.413330	41.648945
645.149292	1102.717163	8109.973145	4022.412598	41.666744
645.482788	1101.899902	8092.078125	4014.756104	41.670700
645.816223	1099.942749	8076.871582	4011.744629	41.734722
646.149658	1099.706177	8067.816895	4010.776611	41.777039
646.483032	1100.502075	8075.860840	4014.368164	41.773712
646.816345	1100.093384	8077.473633	4013.271240	41.751740
647.149658	1098.200684	8077.538574	4016.325684	41.810913
647.482849	1096.200317	8084.291992	4021.057617	41.854881
647.816101	1096.824097	8078.957520	4026.606445	41.961132
648.149231	1098.308105	8086.378418	4030.349121	41.957806
648.482239	1100.523560	8096.530762	4034.413818	41.936638
648.815247	1100.953613	8095.196777	4035.833496	41.961365
649.148254	1099.426636	8089.260742	4037.145264	42.028450
649.481201	1100.222412	8077.538574	4031.187500	42.007053
649.814087	1101.082764	8073.194824	4028.972412	41.994297
650.146973	1098.630859	8060.848633	4022.971680	42.003006
650.479736	1098.931885	8054.697266	4023.789063	42.049393
650.812500	1101.921509	8054.976563	4024.003906	42.025879
651.145203	1101.104248	8043.039551	4021.487305	42.068714
651.477844	1100.803101	8051.212402	4019.659180	41.995457
651.810486	1097.705933	8047.298340	4014.884277	41.976250
652.143005	1096.716675	8036.156250	4013.723389	42.035194
652.475525	1096.716675	8036.543457	4012.045410	42.008667
652.807922	1097.426392	8025.961426	4006.152344	41.981834
653.140381	1097.168213	8024.478027	4005.141602	41.978394
653.472717	1095.383057	7998.733887	3997.205322	42.034985
653.805115	1095.727173	7972.062988	3989.161133	42.078136
654.137390	1093.770020	7941.564453	3974.427979	42.066944
654.469543	1093.296753	7907.625000	3958.554932	42.047554
654.801758	1095.619629	7876.094238	3942.703857	41.989452
655.133850	1096.867065	7834.734375	3924.937744	41.972790
655.465881	1097.490723	7790.793457	3914.399170	42.085480
655.797974	1099.082397	7760.961426	3901.795410	42.070908
656.129944	1099.921143	7724.742188	3890.374756	42.121189
656.461853	1098.114502	7702.911133	3880.653076	42.129055
656.793762	1096.974487	7684.500000	3873.555420	42.149075
657.125610	1097.189575	7687.489258	3874.028809	42.135250
657.457397	1096.845581	7706.740234	3881.319580	42.125847
657.789124	1098.265137	7744.443359	3902.397461	42.191650
658.120789	1096.652100	7805.526367	3933.992920	42.292355
658.452393	1095.963867	7895.795410	3976.170166	42.357025
658.783997	1096.393921	8007.443848	4025.466553	42.382458
659.115540	1099.706177	8137.502930	4079.301025	42.337036
659.447083	1099.082520	8251.990234	4135.953125	42.456448
659.778503	1097.383301	8362.735352	4185.142090	42.499783
660.109924	1099.276001	8457.262695	4229.706543	42.544662
660.441284	1099.770630	8524.668945	4261.431152	42.581871
660.772522	1100.394287	8568.072266	4281.562500	42.599163
661.103760	1101.082520	8577.277344	4285.326660	42.591774
661.434998	1102.028809	8569.641602	4284.853027	42.621708
661.766113	1104.007690	8515.679688	4262.355957	42.613167
662.097229	1104.029419	8421.323242	4225.878906	42.663990
662.428345	1104.717651	8297.867188	4174.882813	42.681793
662.759277	1102.179565	8148.234863	4112.982422	42.730331
663.090332	1102.609741	8003.937988	4046.931152	42.663113
663.421204	1101.942993	7856.973145	3987.010010	42.709904
663.752075	1102.846313	7713.859375	3928.486572	42.741409
664.082886	1102.867798	7589.284668	3880.696045	42.825310
664.413635	1100.889160	7478.367676	3837.270996	42.906956
664.744324	1099.233032	7379.688965	3798.621094	42.980766
665.075012	1097.899536	7287.720215	3753.906006	42.909260
665.405640	1097.963989	7214.679199	3728.096191	42.999096
665.736206	1098.394165	7161.597168	3702.975098	42.957180
666.066772	1095.727051	7110.623047	3687.575684	43.090496
666.397278	1096.867065	7076.941895	3674.240479	43.099354
666.727661	1095.555054	7038.851074	3658.754150	43.127571
667.058044	1097.469238	7009.146973	3648.882080	43.158863
667.388306	1097.512329	6988.822266	3641.676758	43.185040
667.718567	1098.673828	6970.820313	3634.020264	43.175804
668.048828	1099.899780	6964.669922	3624.406250	43.045273
668.378967	1102.889404	6962.884277	3627.245117	43.077778
668.709167	1103.921875	6958.732910	3632.622070	43.190125
669.039246	1101.878540	6962.690918	3631.869385	43.167919
669.369263	1102.416260	6956.776367	3629.955322	43.173615
669.699341	1104.846558	6948.473633	3628.019531	43.178200
670.029236	1105.083130	6938.924805	3623.846680	43.175041
670.359131	1107.147827	6934.085449	3621.997559	43.159027
670.688965	1106.502686	6921.546875	3614.060791	43.121910
671.018738	1105.384277	6902.124512	3605.952148	43.137486
671.348511	1103.878662	6880.379883	3591.821289	43.070065
671.678223	1104.308716	6849.687500	3587.239990	43.216145
672.007813	1102.867676	6814.112793	3572.141602	43.235298
672.337341	1100.157715	6783.227051	3560.290771	43.288811
672.666992	1102.201050	6750.986328	3543.299316	43.214569
672.996460	1102.115112	6716.401855	3530.867920	43.260223
673.325867	1100.673950	6688.054199	3518.995361	43.281845
673.655273	1097.275635	6651.426270	3504.972412	43.349506
673.984619	1095.382935	6617.271484	3488.969727	43.347252
674.314026	1096.415283	6586.729492	3473.828125	43.301945
674.643250	1098.243652	6561.845215	3459.525635	43.218414
674.972412	1098.802856	6540.853516	3447.609619	43.160320
675.301514	1098.243652	6515.022949	3432.425049	43.091682
675.630676	1097.404663	6495.687012	3424.252197	43.103481
675.959778	1100.243774	6470.328125	3409.024414	42.993378
676.288757	1099.189941	6442.131348	3396.937256	43.005287
676.617737	1098.265137	6422.817383	3387.903320	43.001514
676.946594	1098.566284	6406.148438	3381.171631	43.006504
677.275513	1100.673950	6395.158203	3378.031250	43.013771
677.604309	1101.899902	6392.383301	3376.912598	43.001980
677.933044	1100.781494	6398.320313	3380.827393	43.039719
678.261780	1100.803101	6410.879883	3381.924316	42.958347
678.590393	1099.340576	6432.216797	3392.312744	42.996914
678.919067	1101.254761	6468.823242	3407.798340	42.971851
679.247620	1100.523315	6513.860840	3420.552979	42.857662
679.576111	1099.125366	6559.737305	3444.641602	42.953358
679.904541	1098.179077	6620.088867	3468.386475	42.923691
680.232971	1098.006958	6676.332520	3491.163818	42.900986
680.561401	1097.490845	6732.962891	3511.746826	42.840347
680.889709	1097.082153	6787.829590	3529.275879	42.739445
681.217957	1096.350830	6834.244141	3548.869629	42.742493
681.546143	1094.006470	6873.323730	3560.441162	42.676918
681.874390	1095.318481	6900.359375	3577.217285	42.754200
682.202454	1096.393799	6914.985840	3581.884521	42.716362
682.530579	1096.157227	6905.263672	3576.292725	42.693924
682.858521	1099.017700	6874.012695	3567.194580	42.739029
683.186523	1099.426514	6833.169922	3543.836914	42.632019
683.514465	1099.641602	6772.193848	3516.973633	42.614540
683.842346	1100.157715	6708.701660	3488.711914	42.587776
684.170166	1101.727905	6635.251465	3455.094727	42.529263
684.497925	1100.673950	6558.102051	3424.381348	42.578800
684.825623	1100.609375	6474.780762	3392.076660	42.638523
685.153320	1103.814087	6395.049805	3361.534912	42.669064
685.481018	1100.932007	6318.846680	3327.465820	42.670948
685.808533	1097.920898	6247.827637	3297.354736	42.708225
686.136047	1096.910034	6188.508301	3274.083496	42.760117
686.463623	1094.716309	6143.836426	3252.037354	42.726673
686.791016	1093.898926	6115.273438	3240.788818	42.755024
687.118408	1093.038696	6102.132324	3236.444336	42.790291
687.445740	1093.705566	6096.776855	3233.260986	42.764839
687.772949	1094.221558	6093.271484	3233.497559	42.793652
688.100220	1095.705688	6093.701660	3229.539795	42.693790
688.427429	1093.985107	6090.109375	3227.776611	42.708939
688.754517	1094.995972	6091.464355	3225.668213	42.643570
689.081604	1098.157593	6083.226563	3219.625000	42.556431
689.408630	1102.158203	6065.138672	3214.634521	42.564671
689.735657	1102.394653	6042.167480	3204.482910	42.554352
690.062622	1104.502441	6012.873535	3192.008057	42.529499
690.389465	1104.244385	5970.202637	3172.393066	42.502396
690.716248	1105.685425	5911.765137	3148.368652	42.502068
691.043091	1103.599121	5852.058105	3119.935059	42.462955
691.369812	1101.125732	5789.728027	3094.082275	42.506409
691.696533	1100.910645	5724.429688	3068.057617	42.546532
692.023132	1104.050781	5671.025391	3039.903320	42.388073
692.349670	1102.287109	5605.705078	3013.276367	42.434196
692.676270	1101.039673	5552.150391	2992.220215	42.487835
693.002747	1098.523315	5502.918457	2965.743896	42.394485
693.329163	1099.146973	5454.503906	2943.332275	42.342918
693.655518	1098.566284	5414.843262	2923.738770	42.285805
693.981873	1098.286743	5380.150879	2904.854492	42.191151
694.308167	1097.318726	5352.255371	2889.261475	42.114441
694.634399	1099.340576	5318.573730	2876.356445	42.117031
694.960571	1100.588013	5295.774902	2863.236084	42.015961
695.286743	1100.222412	5279.320801	2856.848633	42.033615
695.612854	1098.652222	5266.910645	2850.374512	42.025280
695.938904	1098.630737	5266.072266	2848.051758	41.978298
696.264832	1098.845825	5277.858887	2847.277588	41.838387
696.590820	1100.846191	5295.279785	2854.848145	41.817375
696.916687	1100.394409	5332.553223	2872.162109	41.864395
697.242554	1100.114868	5381.053711	2893.068115	41.882244
697.568359	1099.856689	5452.417480	2925.394775	41.941704
697.894043	1100.738525	5550.967285	2966.238525	41.919197
698.219788	1099.534058	5673.821777	3020.245117	41.989292
698.545349	1101.792358	5811.623535	3071.262451	41.816151
698.870972	1102.136597	5945.833984	3124.709961	41.756809
699.196533	1102.846313	6066.235840	3173.769531	41.723972
699.521973	1101.211670	6169.517578	3214.183350	41.689903
699.847412	1101.125488	6241.720215	3242.659912	41.659275
700.172852	1103.534424	6290.349609	3263.199951	41.637600
700.498169	1104.201172	6309.813965	3266.641357	41.540550
700.823486	1103.749512	6299.876953	3256.511475	41.430122
701.148682	1104.244263	6248.881348	3231.777100	41.354378
701.473816	1103.663574	6161.343750	3189.233643	41.235706
701.799072	1104.351685	6041.027832	3130.624756	41.045288
702.124146	1100.867554	5895.203125	3071.714111	41.107815
702.449158	1100.544922	5739.484863	3006.265381	41.080948
702.774109	1103.018433	5585.810059	2942.429199	41.032707
703.099060	1102.674316	5439.813965	2878.937256	40.954708
703.424011	1102.502197	5303.388672	2826.651367	41.042507
703.748840	1100.630981	5186.169434	2779.570068	41.094681
704.073608	1099.426514	5079.683105	2734.639648	41.083107
704.398315	1100.846069	4983.585449	2700.958252	41.210911
704.723022	1103.513062	4910.414551	2669.341553	41.131313
705.047668	1101.942993	4846.686523	2646.284912	41.240257
705.372253	1101.770996	4791.173828	2625.185547	41.291630
705.696716	1102.953857	4744.007324	2605.097168	41.255733
706.021240	1102.674316	4704.539551	2587.051758	41.211353
706.345764	1097.641357	4671.353027	2573.093262	41.286259
706.670044	1099.942749	4651.285645	2565.543945	41.268932
706.994446	1097.189697	4638.187500	2556.725586	41.218208
707.318665	1095.318604	4627.347168	2546.444824	41.084782
707.642883	1094.587158	4623.282227	2544.702148	41.094936
707.967102	1093.038574	4619.604980	2538.572510	40.989841
708.291260	1092.113770	4615.281250	2538.206787	41.045254
708.615295	1095.447510	4613.969727	2536.916260	40.968018
708.939331	1096.630493	4619.562012	2538.851807	40.938103
709.263367	1096.415527	4626.874512	2543.218262	40.980583
709.587280	1097.641479	4638.832520	2551.455811	41.054390
709.911194	1098.888794	4662.556152	2557.714844	40.936089
710.234985	1098.071533	4684.344238	2565.135254	40.907757
710.558716	1101.104248	4710.605469	2576.770996	40.882843
710.882568	1104.373413	4740.694824	2592.687012	40.929100
711.206177	1105.212158	4770.397949	2603.935791	40.890797
711.529785	1105.319702	4803.110840	2616.883545	40.877483
711.853394	1104.459351	4831.093262	2624.863037	40.798313
712.176880	1103.857178	4846.105469	2632.068115	40.836704
712.500427	1102.394653	4857.935059	2634.305176	40.790680
712.823792	1100.458984	4866.709961	2630.734619	40.631271
713.147217	1100.351440	4868.839355	2629.186035	40.568916
713.470520	1099.878052	4855.547363	2627.766602	40.682190
713.793823	1100.437378	4835.544922	2622.109863	40.739723
714.117004	1100.523438	4811.112305	2610.947266	40.705772
714.440247	1098.200684	4783.754395	2595.633545	40.629795
714.763367	1098.415771	4748.201172	2579.997070	40.593655
715.086365	1097.232788	4712.841797	2567.500977	40.664471
715.409485	1096.781128	4687.011230	2559.413818	40.739246
715.732361	1097.275879	4667.696777	2551.778564	40.737568
716.055298	1097.405029	4649.586426	2545.691650	40.771751
716.378174	1100.308472	4628.573242	2544.551758	40.933529
716.700928	1100.760132	4606.527832	2535.088135	40.913380
717.023804	1101.340820	4585.686035	2523.065186	40.803200
717.346558	1101.728027	4558.823242	2511.128174	40.768333
717.669189	1098.609253	4527.421387	2496.158447	40.758991
717.991760	1097.469238	4488.470215	2483.640869	40.877949
718.314392	1096.587402	4450.594238	2468.069336	40.890850
718.636902	1099.577026	4408.395508	2448.883789	40.779114
718.959351	1100.157715	4350.775391	2424.472168	40.740395
719.281738	1098.566284	4297.457031	2402.168457	40.751698
719.604065	1098.781250	4234.267090	2377.541992	40.783497
719.926453	1097.727417	4175.249023	2352.571045	40.774487
720.248718	1095.963745	4124.210449	2331.815674	40.810810
720.570923	1096.028198	4073.709229	2312.501709	40.853046
720.893066	1093.705322	4031.316406	2293.337891	40.837009
721.215088	1096.178833	3985.740723	2278.991943	40.933994
721.537170	1098.501709	3947.241943	2261.914795	40.839565
721.859192	1100.587891	3913.947754	2250.321777	40.866932
722.181152	1099.103882	3881.728271	2239.890381	40.996780
722.503052	1100.480469	3859.360107	2231.975586	41.012848
722.824951	1102.652832	3835.615479	2220.748291	40.911480
723.146790	1103.190552	3823.097412	2217.866211	40.982128
723.468506	1104.330444	3809.010010	2212.510742	40.972702
723.790161	1104.480957	3791.265625	2205.907959	40.994244
724.111816	1107.599609	3779.392822	2202.982666	40.998047
724.433472	1109.083618	3764.789063	2200.917969	41.112778
724.755005	1108.933105	3761.132813	2198.681152	41.088463
725.076477	1107.642578	3755.927979	2198.293945	41.183300
725.397888	1106.309082	3752.292969	2199.283447	41.306915
725.719299	1106.760864	3754.831055	2200.487793	41.302792
726.040710	1105.642456	3757.368652	2204.165771	41.426727
726.361938	1102.781738	3763.111572	2207.262695	41.516693
726.683167	1101.319336	3769.628174	2209.865234	41.544888
727.004395	1098.523315	3782.791260	2213.994629	41.555885
727.325500	1098.888916	3802.943848	2223.071045	41.573936
727.646667	1097.361816	3818.666504	2232.018555	41.695320
727.967651	1096.738037	3837.765625	2241.094971	41.749195
728.288635	1095.533569	3854.434570	2250.364990	41.858387
728.609558	1096.609009	3870.242920	2257.914063	41.869446
728.930481	1097.748901	3888.051514	2261.828369	41.718750
729.251282	1097.533813	3895.902100	2266.000977	41.755306
729.572021	1097.856567	3901.946045	2267.227051	41.702328
729.892761	1101.147217	3904.398193	2270.582275	41.717102
730.213440	1103.082886	3907.000244	2274.604492	41.781601
730.534119	1103.125854	3909.043701	2277.594238	41.856831
730.854675	1105.298340	3910.914795	2278.691162	41.822994
731.175171	1103.986328	3916.764893	2277.916504	41.735607
731.495605	1106.180176	3921.561035	2281.658936	41.752033
731.816101	1105.470215	3924.852295	2285.487305	41.853748
732.136475	1105.083130	3927.583008	2289.466553	41.962212
732.456787	1101.405273	3927.024170	2295.445557	42.257656
732.777039	1100.803101	3935.347900	2302.177979	42.383343
733.097229	1101.018066	3941.176758	2307.232178	42.469955
733.417480	1098.867310	3944.983398	2309.318604	42.529934
733.737549	1097.125122	3943.112305	2306.242432	42.484985
734.057617	1098.179077	3932.616455	2302.091553	42.474476
734.377563	1095.189331	3911.086670	2295.402588	42.622761
734.697510	1096.071289	3878.867432	2284.992432	42.723976
735.017517	1093.770020	3843.358398	2271.076904	42.817570
735.337341	1093.189331	3805.761963	2253.182129	42.763565
735.657166	1093.683960	3767.800537	2236.104980	42.721436
735.976868	1096.243286	3729.903076	2217.177979	42.561867
736.296631	1096.479980	3685.919434	2198.745605	42.567730
736.616272	1096.609009	3646.989746	2183.560791	42.619194
736.935852	1094.200195	3613.695068	2172.204590	42.786530
737.255371	1092.995728	3579.648193	2159.213623	42.877644
737.574829	1092.716187	3553.386719	2151.212891	43.016598
737.894348	1093.167847	3539.879150	2144.674561	42.976326
738.213745	1090.952515	3535.707031	2145.491943	43.134781
738.533081	1090.780396	3536.954102	2145.943359	43.135239
738.852356	1092.436523	3542.008545	2149.384766	43.148281
739.171570	1091.425659	3550.095947	2156.718994	43.328026
739.490784	1090.414673	3554.031982	2161.988525	43.495956
739.809937	1089.769409	3559.795898	2164.827148	43.524139
740.129028	1086.263550	3556.870850	2163.902588	43.618385
740.447998	1089.360840	3549.062744	2162.784180	43.640385
740.767029	1089.791016	3542.073242	2165.859619	43.880291
741.085999	1090.866333	3529.534180	2162.267822	43.933880
741.404846	1093.941895	3505.854004	2157.149170	44.081509
741.723633	1096.566040	3479.054688	2148.889893	44.169102
742.042358	1097.619995	3447.330566	2138.996338	44.319347
742.361145	1098.308105	3413.713379	2127.231445	44.438152
742.679810	1098.630737	3378.698242	2111.745605	44.433548
742.998413	1098.071411	3342.435303	2097.894531	44.548176
743.316956	1096.544434	3307.721191	2086.258789	44.759621
743.635498	1100.953491	3277.159180	2076.730469	44.838455
743.953979	1099.835205	3247.563477	2064.686035	44.924252
744.272400	1103.276489	3222.377930	2050.533691	44.700886
744.590698	1101.018066	3197.170166	2044.188965	44.995346
744.909058	1098.652222	3172.715576	2035.047974	45.147884
745.227356	1099.361938	3152.347656	2027.089844	45.189201
745.545471	1099.835083	3136.452881	2019.906128	45.176422
745.863586	1101.706299	3118.794678	2018.787842	45.465611
746.181702	1101.835449	3099.072021	2013.733521	45.657990
746.499756	1105.083130	3085.199463	2010.980103	45.749683
746.817810	1108.782593	3073.305420	2008.550049	45.800816
747.135742	1106.696411	3063.347412	2007.797363	46.053226
747.453613	1107.449097	3057.948975	2010.980469	46.323067
747.771423	1105.448730	3051.646729	2015.432495	46.757000
748.089233	1108.997559	3048.893799	2019.024536	46.911118
748.406982	1110.008545	3053.905273	2027.541504	47.200706
748.724609	1109.685913	3058.378906	2034.961792	47.481869
749.042236	1107.018799	3059.346924	2043.543457	47.969635
749.359863	1104.480957	3064.616455	2048.533447	48.162613
749.677429	1103.362427	3072.724854	2061.008057	48.627190
749.994873	1101.577393	3079.026611	2069.847900	48.965633
750.312256	1100.243896	3083.586182	2079.870605	49.392719
750.629639	1103.491699	3088.361084	2085.957275	49.497746
750.946960	1104.222900	3091.178711	2091.162354	49.670933
751.264282	1104.782104	3090.511719	2101.228027	50.180344
751.581482	1103.943237	3088.726563	2104.798340	50.426414
751.898621	1101.728027	3083.779785	2106.626709	50.699921
752.215698	1100.243774	3078.725586	2110.390381	51.056652
752.532715	1102.738770	3077.456787	2118.563477	51.441505
752.849792	1101.534424	3074.101318	2123.682617	51.818176
753.166748	1101.620483	3069.283447	2126.069824	52.064270
753.483643	1101.469849	3068.767090	2129.188477	52.240131
753.800476	1100.501953	3066.680664	2132.888184	52.507244
754.117310	1095.877808	3065.132568	2145.513184	53.301147
754.434082	1092.780518	3060.593994	2159.687012	54.217869
754.750732	1091.791138	3060.551025	2164.160645	54.469288
755.067383	1092.264404	3061.110352	2175.538330	55.020756
755.383911	1093.511963	3057.410889	2184.679199	55.561272
755.700562	1093.425903	3055.905273	2192.508057	56.004776
756.016968	1093.382935	3049.216309	2198.057129	56.480999
756.333435	1095.490601	3043.925537	2207.671143	57.080711
756.649780	1097.447754	3042.161621	2217.780029	57.609108
756.966064	1096.996094	3042.914795	2232.491699	58.352676
757.282410	1097.017578	3046.441650	2243.546631	58.813732
757.598633	1096.630493	3049.990723	2256.279541	59.366882
757.914795	1100.329956	3059.734131	2266.861572	59.535019
758.230896	1099.577148	3072.273438	2283.960205	60.038795
758.546936	1096.673706	3082.403320	2301.123779	60.655293
758.862976	1095.146606	3093.996094	2320.051025	61.280472
759.178894	1094.221558	3103.352295	2336.655273	61.839367
759.494812	1095.296997	3115.203125	2355.109131	62.369835
759.810669	1094.931274	3124.688232	2372.724121	62.952999
760.126526	1094.027832	3134.172852	2391.371338	63.590748
760.442261	1093.662354	3138.109131	2408.169434	64.296471
760.757935	1092.414917	3141.571777	2423.483154	64.956879
761.073608	1095.877808	3145.593750	2437.893555	65.473259
761.389160	1094.006592	3143.851563	2450.647705	66.182617
761.704712	1095.576538	3141.012451	2464.283936	66.915192
762.020203	1098.351074	3145.658447	2477.661865	67.371948
762.335571	1100.458862	3166.349365	2499.772217	67.734146
762.650940	1102.394653	3207.171631	2544.444336	68.513184
762.966370	1100.329956	3283.697021	2611.033447	69.191452
763.281677	1100.867676	3390.075928	2700.721680	69.886780
763.596863	1098.243652	3507.316162	2793.916260	70.386948
763.911987	1100.415894	3602.295898	2878.700928	71.077957
764.227112	1102.867798	3678.735352	2948.408447	71.647339
764.542236	1103.319458	3740.076416	3000.049072	71.934189
764.857178	1103.685059	3780.877441	3039.752930	72.317101
765.172119	1102.609863	3804.622070	3068.702881	72.764030
765.487061	1099.082397	3818.322754	3089.565674	73.199982
765.801880	1095.899292	3806.385742	3095.501709	73.772827
766.116760	1094.608643	3769.692871	3073.735840	73.983734
766.431458	1094.243042	3686.671875	3019.363281	74.259331
766.746155	1093.124634	3573.044678	2942.515137	74.574608
767.060791	1095.296997	3442.340576	2858.203613	75.111801
767.375427	1094.716309	3328.520264	2777.656006	75.339630
767.689941	1093.232300	3229.862549	2710.228271	75.679726
768.004395	1090.027466	3144.906006	2652.371338	76.030968
768.318848	1087.769165	3074.574463	2606.860352	76.458984
768.633179	1088.134888	3014.631836	2568.016846	76.817245
768.947632	1090.457764	2957.291260	2533.732910	77.311401
769.261841	1091.188965	2908.618408	2503.514404	77.710052
769.576111	1091.877197	2861.257813	2477.597412	78.316681
769.890259	1093.038818	2827.167725	2457.078369	78.658485
770.204285	1094.501221	2789.485596	2436.323242	79.164268
770.518433	1092.630127	2756.814697	2417.202881	79.592903
770.832458	1091.081543	2725.714111	2397.264648	79.906830
771.146362	1090.844849	2697.301758	2385.349365	80.581337
771.460205	1091.619263	2670.524170	2371.863770	81.084335
771.774109	1093.490356	2651.468262	2357.432129	81.127068
772.087952	1094.608765	2632.154053	2345.817383	81.377022
772.401672	1094.888550	2615.657227	2333.643799	81.455864
772.715332	1098.071411	2602.666504	2322.976074	81.410919
773.028992	1098.630737	2589.718506	2315.813965	81.630554
773.342590	1098.049927	2572.082031	2309.318604	82.173836
773.656128	1097.103638	2557.994385	2301.489502	82.441887
773.969604	1099.555664	2543.970947	2296.413574	82.861069
774.283020	1100.200928	2532.851563	2291.337646	83.142166
774.596375	1099.577148	2521.043701	2282.497803	83.218323
774.909729	1100.695557	2507.816162	2277.228271	83.612785
775.223022	1101.900024	2492.523926	2271.464355	84.103569
775.536194	1105.836060	2481.941895	2264.710693	84.214066
775.849304	1105.857544	2466.456055	2257.828125	84.666458
776.162476	1104.674561	2453.142822	2251.655273	85.058044
776.475525	1104.739014	2438.840088	2243.826416	85.382393
776.788513	1105.427246	2430.839111	2237.567627	85.418007
777.101440	1103.857178	2424.859863	2230.921631	85.318863
777.414307	1102.502075	2417.826660	2222.920410	85.181892
777.727173	1100.566406	2414.213379	2223.200195	85.459320
778.039978	1102.781738	2408.384521	2219.974121	85.569084
778.352722	1101.211792	2403.846191	2217.027344	85.658379
778.665405	1098.566284	2402.491455	2217.070557	85.779793
778.977966	1092.823608	2397.759521	2215.930664	86.066071
779.290649	1092.436401	2399.566162	2215.220947	85.896950
779.603149	1092.156860	2396.124756	2215.823242	86.172859
779.915588	1090.328613	2397.006836	2216.403564	86.178444
780.227966	1090.199585	2391.801514	2212.639648	86.235283
780.540405	1090.048950	2385.219971	2211.908447	86.618637
780.852722	1088.307007	2382.596191	2210.854492	86.730812
781.164917	1089.554321	2373.412354	2203.907471	86.797226
781.477173	1089.876953	2365.260742	2201.993164	87.198555
781.789246	1090.737305	2355.926270	2199.627441	87.646210
782.101379	1091.360962	2343.107666	2193.669678	88.061646
782.413452	1092.500977	2335.429199	2186.120361	87.987335
782.725403	1091.683716	2324.244873	2180.184082	88.312080
783.037292	1092.586914	2315.189941	2170.613037	88.174667
783.349182	1094.264648	2301.854980	2164.182129	88.599373
783.661072	1094.049561	2294.843262	2157.772705	88.585007
783.972839	1094.845337	2286.003662	2152.073242	88.756287
784.284546	1096.609009	2271.679443	2141.598633	88.929955
784.596191	1097.211182	2261.699463	2136.157227	89.219109
784.907898	1095.383057	2254.236084	2126.542969	88.981079
785.219421	1096.652100	2247.138428	2117.552490	88.736420
785.530884	1095.189453	2243.331787	2112.455322	88.601021
785.842346	1094.737793	2236.341553	2108.820313	88.829643
786.153748	1096.479858	2227.588135	2104.690674	89.134773
786.465149	1096.845581	2220.232178	2100.862305	89.374107
786.776428	1098.093018	2214.403320	2097.356445	89.514847
787.087646	1100.114746	2210.489014	2100.862305	90.127052
787.398804	1100.028809	2215.650879	2108.089111	90.358582
787.709961	1101.448242	2228.491211	2122.736084	90.616585
788.021057	1103.448486	2243.998535	2137.856201	90.693756
788.332031	1105.255127	2260.581299	2156.159668	90.961716
788.643005	1103.792725	2278.411377	2172.720947	91.002151
788.953918	1105.513306	2290.907715	2183.775879	90.962349
789.264832	1108.137329	2298.671875	2194.121338	91.218185
789.575623	1107.040527	2307.898926	2200.982178	91.096642
789.886353	1104.803589	2315.555664	2208.574707	91.164093
790.197083	1102.480835	2321.470459	2208.596191	90.740341
790.507690	1098.695313	2320.459473	2203.154541	90.398727
790.818359	1099.792236	2312.114258	2193.970947	90.254791
791.128845	1098.394287	2292.391357	2176.011719	90.252937
791.439331	1097.297363	2270.732666	2152.567871	89.930016
791.749756	1095.619629	2247.246338	2130.220947	89.838257
792.060120	1096.092896	2224.662842	2111.250732	89.950813
792.370483	1097.361694	2201.928711	2093.377197	90.172485
792.680786	1093.597778	2184.206055	2075.676758	90.048737
792.990967	1093.619263	2169.795898	2059.911133	89.789337
793.301086	1095.189453	2154.396240	2043.952271	89.572952
793.611267	1093.275269	2141.577393	2036.080200	89.936378
793.921326	1095.254028	2130.070557	2029.412842	90.272896
794.231323	1095.834839	2122.757568	2022.358154	90.223274
794.541260	1097.576782	2120.929443	2018.701660	90.010506
794.851074	1098.308105	2121.144287	2020.938354	90.203133
795.161011	1099.297607	2123.252197	2019.605103	89.877762
795.470764	1099.512573	2126.284912	2023.347656	89.974678
795.780518	1099.598755	2132.049072	2033.499268	90.454765
796.090149	1102.050659	2141.147217	2043.349976	90.588242
796.399780	1099.663208	2146.158447	2052.576904	91.057625
796.709412	1098.458618	2155.600586	2064.169678	91.351120
797.018860	1099.512573	2160.504395	2069.589600	91.431152
797.328308	1100.222412	2166.117920	2072.665527	91.232498
797.637756	1098.953369	2165.515625	2075.934570	91.600952
797.947205	1098.738403	2166.655518	2080.451416	91.927826
798.256470	1097.942505	2161.364502	2079.677002	92.318428
798.565674	1098.243652	2157.278076	2079.505127	92.656242
798.874817	1099.125488	2148.309082	2070.772705	92.609840
799.183960	1098.501831	2141.921387	2060.836182	92.228897
799.493103	1098.480225	2131.447021	2048.812988	92.000320
799.802124	1101.749512	2121.531494	2036.187866	91.631187
800.111084	1102.265503	2105.830811	2024.315308	91.877411
800.419983	1103.319458	2098.023438	2017.088745	91.863441
800.728821	1102.846313	2086.774658	2008.808105	92.075996
801.037659	1104.997070	2080.709473	2000.656616	91.795448
801.346436	1102.781738	2071.482666	1992.655518	91.862595
801.655151	1102.953979	2065.804443	1984.009399	91.504906
801.963745	1103.642090	2057.674316	1974.975830	91.331688
802.272400	1102.201050	2050.490479	1965.082153	90.993431
802.580933	1102.201050	2039.693359	1956.500366	91.126007
802.889404	1100.630981	2028.745972	1951.682739	91.696800
803.197815	1099.082520	2021.282837	1948.929565	92.154282
803.506226	1099.297607	2016.185425	1942.391113	91.951653
803.814575	1100.566528	2007.926147	1936.153931	92.089989
804.122864	1101.190308	2004.979614	1932.626587	91.994484
804.431030	1100.007324	2001.473877	1929.873413	92.057335
804.739197	1102.201172	2001.990112	1929.142212	91.903893
805.047241	1102.416138	2005.754028	1931.271484	91.754738
805.355408	1101.426758	2007.345703	1932.583618	91.747375
805.663391	1099.146973	2007.990601	1938.713379	92.377434
805.971313	1099.168457	2010.550049	1939.853394	92.242912
806.279175	1098.286621	2015.131226	1940.390991	91.848099
806.587036	1097.641479	2015.045410	1942.240723	92.064056
806.894836	1098.566284	2019.046021	1945.703491	92.032143
807.202576	1098.351074	2019.497314	1944.412964	91.848816
807.510193	1096.888550	2016.873535	1943.810669	92.058258
807.817810	1095.210938	2012.937622	1938.068237	91.841866
808.125427	1093.791504	2003.044067	1931.120972	92.089867
808.432922	1094.114136	1993.773804	1923.614746	92.201599
808.740295	1094.587280	1982.503540	1917.398804	92.667694
809.047729	1097.576904	1975.276978	1909.247559	92.476997
809.355103	1097.039185	1967.017944	1902.300415	92.561020
809.662415	1098.329590	1958.005981	1892.406616	92.369293
809.969604	1100.652466	1948.585449	1883.545288	92.329567
810.276794	1098.867310	1934.863403	1872.145996	92.497879
810.583923	1098.996460	1925.744141	1863.435181	92.463364
810.890991	1101.254761	1915.011597	1857.154785	92.890160
811.197998	1102.093628	1908.214844	1850.831543	92.881554
811.505005	1103.018433	1904.429321	1844.443481	92.514969
811.811829	1101.706421	1894.557129	1836.743652	92.708153
812.118713	1101.899902	1888.190918	1831.172974	92.748497
812.425537	1099.835205	1879.695313	1822.440918	92.658379
812.732300	1098.222168	1872.963257	1815.429321	92.573784
813.038940	1097.684448	1866.187988	1812.073853	92.958504
813.345581	1098.845825	1863.585571	1804.825806	92.316368
813.652100	1099.060913	1860.918823	1801.621094	92.216698
813.958740	1097.426270	1856.810913	1797.168823	92.145996
814.265137	1096.953125	1852.681152	1791.232544	91.868950
814.571533	1097.921021	1844.830811	1787.038574	92.262489
814.877930	1098.329590	1838.356934	1783.167114	92.542191
815.184265	1099.039429	1836.184448	1781.188354	92.539314
815.490540	1097.770386	1834.356323	1780.586060	92.700066
815.796692	1097.254150	1834.635864	1782.909058	92.985069
816.102844	1099.211426	1837.539551	1781.876587	92.460945
816.408936	1100.523438	1839.324341	1782.220825	92.270782
816.714966	1099.211426	1841.475098	1785.360962	92.440132
817.020935	1100.673950	1842.270996	1786.608521	92.494240
817.326843	1103.964722	1845.712402	1788.630371	92.304390
817.632690	1102.158081	1852.294067	1793.856689	92.209763
817.938477	1101.835449	1856.961304	1799.534790	92.395103
818.244263	1101.792480	1867.629272	1808.395996	92.265549
818.549988	1100.760010	1873.328857	1817.708984	92.800659
818.855652	1103.470093	1885.846558	1827.301636	92.517036
819.161194	1103.706665	1902.515503	1842.851929	92.530930
819.466797	1103.771118	1925.163330	1867.414063	92.969345
819.772278	1103.255005	1952.435425	1897.762085	93.561638
820.077698	1102.738770	1988.138794	1929.959839	93.429077
820.383057	1101.813843	2028.810669	1973.728516	94.057999
820.688354	1098.673706	2080.752441	2024.014160	94.222633
820.993652	1101.663330	2157.772705	2098.668457	94.403587
821.298828	1101.684814	2304.586670	2239.589111	94.596603
821.604004	1100.630981	2572.469482	2499.406250	95.035919
821.909058	1099.835205	2981.638184	2887.669678	95.006462
822.214111	1096.953125	3465.762695	3346.479004	94.964401
822.519165	1097.985474	3929.153320	3782.683838	94.826523
822.824036	1096.824097	4320.793457	4153.417969	94.808403
823.128906	1095.361450	4639.757813	4457.950684	94.870575
823.433716	1096.178833	4895.488281	4705.637207	95.003014
823.738525	1094.673340	5104.998047	4901.016113	94.913582
824.043213	1094.049683	5264.351074	5056.454590	95.014832
824.347900	1090.887817	5364.987793	5154.058105	95.064934
824.652466	1090.414551	5375.397949	5160.725586	94.990128
824.957031	1093.103149	5241.897461	5027.311523	94.827751
825.261536	1093.318237	4947.731445	4746.308594	94.774231
825.565979	1093.167725	4563.447266	4379.747559	94.706490
825.870300	1095.705688	4180.711426	4022.455566	94.870163
826.174622	1097.125122	3872.071045	3731.429932	94.931755
826.478821	1098.157593	3660.776367	3521.984375	94.583977
826.783142	1096.867188	3533.771240	3397.904785	94.424629
827.087280	1097.469482	3464.859375	3329.422852	94.279076
827.391357	1099.361938	3414.552246	3277.718018	94.089706
827.695435	1101.211670	3371.278320	3233.476318	93.929604
827.999451	1102.416138	3325.917725	3191.621338	93.960136
828.303406	1102.179565	3276.857910	3149.637695	94.149933
828.607239	1101.964478	3237.540771	3107.761475	93.922989
828.911011	1102.459106	3190.309326	3064.487305	93.973618
829.214844	1099.942749	3143.464844	3019.255615	93.921806
829.518616	1098.609375	3076.682617	2956.882324	93.943588
829.822205	1098.781372	2972.583496	2861.343750	94.063423
830.125793	1098.673706	2829.640869	2726.144287	94.020882
830.429382	1099.168457	2664.308838	2567.866455	93.838097
830.732849	1098.824341	2509.278564	2422.924072	93.877541
831.036316	1096.824097	2377.025635	2298.026855	93.829193
831.339661	1096.651978	2268.861816	2193.497559	93.570755
831.642944	1093.748413	2178.850830	2105.379150	93.229057
831.946228	1096.286377	2102.174561	2036.811401	93.501945
832.249512	1098.222046	2045.307129	1984.073853	93.534554
832.552673	1099.082275	2010.528564	1947.940308	93.133087
832.855774	1102.932373	1996.849487	1939.207886	93.551796
833.158813	1104.997192	2013.561401	1958.479248	93.937454
833.461731	1103.921753	2059.653076	2003.538574	94.128632
833.764771	1103.900269	2119.768066	2065.352539	94.643440
834.067627	1103.104492	2185.711914	2126.284912	94.510750
834.370422	1102.975464	2241.912354	2180.872314	94.640610
834.673157	1101.663452	2288.176025	2228.125488	94.938904
834.975891	1101.900024	2330.245850	2268.797119	94.997444
835.278564	1098.308105	2362.443115	2297.682617	94.877090
835.581177	1096.910156	2382.402588	2316.028809	94.836700
835.883728	1095.985229	2384.703857	2320.760498	95.038223
836.186218	1092.802002	2366.636963	2301.704346	94.902588
836.488647	1090.307129	2323.083252	2258.387207	94.752007
836.791077	1092.092285	2254.881348	2193.841553	94.750572
837.093384	1090.586792	2176.441650	2116.025635	94.436089
837.395630	1090.737305	2090.258789	2039.521484	94.923843
837.697815	1093.017090	2016.034790	1966.996460	94.687172
838.000061	1094.286255	1949.897705	1900.063232	94.175575
838.302124	1096.006714	1888.363281	1838.141724	93.661751
838.604126	1098.996338	1832.979980	1786.845215	93.714470
838.906128	1098.566284	1788.243042	1743.140625	93.460358
839.208069	1100.910645	1753.615112	1709.028931	93.169006
839.510010	1100.050293	1732.945801	1688.338257	92.951828
839.811829	1101.061157	1722.105835	1673.863281	92.232033
840.113586	1101.985962	1716.105103	1662.463989	91.265358
840.415222	1102.351685	1711.566895	1658.527832	91.293869
840.716919	1102.050537	1712.921875	1654.269531	90.398575
841.018555	1100.630981	1710.857056	1653.581299	90.614014
841.320068	1100.523560	1709.136353	1652.183228	90.642143
841.621521	1097.641357	1705.630737	1650.225830	90.887192
841.922974	1097.512329	1703.781128	1645.795044	90.435585
842.224365	1096.221802	1698.167480	1641.622681	90.606331
842.525635	1095.727173	1688.209351	1632.438721	90.586952
842.826965	1097.619873	1671.691040	1615.555054	90.221420
843.128174	1098.673706	1646.139526	1596.821533	90.991585
843.429260	1097.447754	1618.781250	1576.775879	91.942703
843.730408	1101.663208	1595.208496	1553.740723	91.597977
844.031433	1103.362427	1574.797241	1534.125366	91.372749
844.332397	1105.384277	1555.224976	1513.972290	90.829491
844.633362	1105.083130	1538.384277	1496.959473	90.439720
844.934204	1106.029419	1523.844604	1483.344971	90.306808
845.235046	1107.234009	1509.713989	1470.978027	90.375679
845.535828	1108.266357	1497.755371	1459.105591	90.076797
845.836487	1108.546021	1485.108521	1446.824463	89.833282
846.137146	1107.642700	1474.763428	1434.973511	89.161629
846.437744	1105.556396	1465.708496	1423.853882	88.378632
846.738281	1105.147583	1457.642944	1415.336792	87.998100
847.038757	1102.179565	1449.856934	1410.045654	88.549362
847.339172	1099.749146	1439.275024	1402.926636	89.294365
847.639526	1098.329590	1433.338867	1399.377686	89.862617
847.939819	1097.748901	1427.101563	1395.656738	90.452538
848.240112	1097.512207	1421.896606	1391.677856	90.684280
848.540283	1096.479980	1416.369141	1387.569824	90.997093
848.840393	1097.533813	1413.573120	1384.063965	90.662819
849.140564	1094.888428	1410.583374	1382.902466	91.231758
849.440552	1096.888672	1405.034302	1380.278564	91.966225
849.740540	1097.082153	1402.818970	1377.848145	91.832573
850.040405	1098.910400	1400.259644	1375.525269	91.792122
850.340210	1097.985596	1397.183838	1371.374146	91.373718
850.640137	1098.695435	1395.613770	1370.191284	91.437889
850.939819	1098.652344	1392.194092	1366.964966	91.405266
851.239502	1096.910156	1388.193481	1363.846436	91.641457
851.539185	1096.178955	1387.333130	1361.373047	91.083733
851.838745	1095.748779	1385.676880	1359.996338	91.142448
852.138245	1094.458130	1379.504272	1358.856445	92.756325
852.437744	1095.920776	1376.944824	1354.081665	91.864342
852.737122	1094.608643	1377.912598	1351.393066	90.639198
853.036499	1095.641113	1375.912354	1349.479004	90.568657
853.335815	1094.802246	1372.449585	1349.177856	91.618240
853.635010	1095.963623	1369.954712	1348.382080	92.126518
853.934204	1095.899170	1371.395630	1343.886841	90.014832
854.233276	1095.985229	1372.707886	1341.284424	88.644417
854.532410	1095.791748	1372.428223	1338.660400	87.793434
854.831482	1096.157349	1368.943848	1336.939819	88.267738
855.130371	1094.974487	1366.298340	1332.810181	87.657494
855.429260	1096.049927	1364.212158	1331.734863	87.888939
855.728088	1094.479736	1360.727783	1331.863892	89.159019
856.026855	1094.221558	1355.888550	1331.025146	90.498077
856.325623	1094.264526	1354.361450	1330.637939	90.878975
856.624329	1094.737793	1354.124878	1326.938599	89.519028
856.922913	1095.124878	1352.404175	1325.777222	89.650566
857.221436	1097.426270	1348.661743	1329.046387	92.192444
857.519958	1097.727417	1345.715088	1326.831177	92.385139
857.818420	1097.942383	1343.327759	1326.637573	93.198380
858.116821	1099.856567	1341.951172	1325.669678	93.274742
858.415161	1102.179565	1343.241699	1326.185913	92.924736
858.713379	1102.738770	1342.553589	1322.658691	91.704056
859.011658	1107.018799	1343.542847	1321.841309	90.824806
859.309814	1108.115723	1343.306274	1320.830322	90.443512
859.607910	1107.470581	1341.456543	1319.023560	90.412682
859.905945	1108.868652	1340.897339	1318.787109	90.470909
860.203979	1107.707153	1340.209106	1317.754761	90.342300
860.501953	1107.879272	1338.531494	1313.431641	89.117882
860.799744	1107.707153	1335.713989	1312.549805	89.840576
861.097656	1109.642822	1335.950439	1312.270020	89.536179
861.395325	1109.513794	1336.337646	1308.506226	87.729942
861.693115	1108.416870	1335.090088	1306.721069	87.484619
861.990784	1108.804199	1335.434326	1305.624023	86.846275
862.288330	1107.384521	1333.261963	1304.354980	87.202362
862.585815	1104.739136	1334.401855	1303.150635	86.392555
862.883301	1106.244629	1334.294434	1302.634399	86.117050
863.180786	1106.072632	1332.702881	1301.903198	86.409721
863.478149	1107.018799	1330.745605	1301.365601	86.867912
863.775452	1105.319824	1330.272339	1300.698730	86.853401
864.072693	1108.072876	1331.455200	1302.397949	86.992142
864.369873	1109.750366	1331.390747	1300.913940	86.249435
864.667114	1108.997681	1328.680664	1304.742310	89.103226
864.964111	1108.223511	1327.970947	1305.688599	89.860016
865.261169	1106.653198	1327.347168	1305.968262	90.312874
865.558105	1105.190796	1328.938843	1305.817749	89.666458
865.855042	1105.362793	1327.261230	1305.537964	90.210266
866.151917	1103.878662	1326.099731	1304.699341	90.369774
866.448730	1100.652466	1325.863159	1305.301636	90.870094
866.745422	1102.373047	1327.454590	1304.806885	89.938004
867.042114	1100.781616	1327.583862	1305.645630	90.327156
867.338806	1096.609009	1324.422241	1303.430298	90.785461
867.635376	1094.673218	1321.066895	1304.096924	92.504219
867.931824	1096.458496	1322.765991	1299.537231	89.735756
868.228271	1096.781128	1320.077515	1295.902466	89.173561
868.524658	1096.307861	1319.561401	1295.128052	89.055786
868.821045	1098.824341	1318.120361	1293.127930	88.603333
869.117310	1098.458618	1315.474731	1292.848389	89.573891
869.413574	1096.888550	1314.958740	1294.633545	90.679520
869.709717	1097.856567	1312.205566	1290.224365	89.745132
870.005859	1095.038940	1308.957886	1289.364014	90.840515
870.301880	1096.437012	1308.463257	1286.955200	89.855949
870.597900	1095.490601	1308.334106	1285.126831	89.096558
870.893860	1095.813232	1311.990479	1286.309937	88.120605
871.189636	1092.371948	1311.753906	1288.310059	89.313683
871.485535	1092.845093	1311.108643	1291.235229	90.894760
871.781311	1092.006348	1310.269897	1289.665161	90.559700
872.077026	1090.264160	1310.700073	1293.085083	92.009018
872.372681	1091.963379	1311.818481	1297.881226	93.660706
872.668274	1093.210815	1312.807861	1297.214478	92.899094
872.963806	1092.715942	1314.592896	1299.924438	93.388924
873.259338	1093.275269	1318.679565	1299.580200	91.526619
873.554688	1093.812988	1319.346191	1300.440552	91.617355
873.850098	1096.695190	1320.507813	1302.333374	91.879616
874.145447	1096.501465	1318.335449	1299.666382	91.584213
874.440674	1100.265503	1317.582520	1299.580322	91.716156
874.735840	1099.362183	1320.335693	1297.623047	89.721550
875.031006	1101.577393	1323.110107	1298.978027	89.106766
875.326050	1100.437378	1323.970581	1297.752197	88.270920
875.621094	1101.190186	1325.389893	1293.085083	85.591057
875.916077	1103.599121	1325.583618	1292.138672	84.933655
876.210999	1106.502686	1326.917114	1289.944946	83.226067
876.505798	1107.363037	1322.895142	1289.600708	84.552444
876.800598	1106.997192	1321.776855	1289.127441	84.798645
877.095337	1104.007690	1322.077881	1289.837158	85.215439
877.390015	1106.201538	1323.088745	1289.385620	84.460526
877.684692	1105.728516	1322.335938	1291.579346	85.800766
877.979187	1107.470581	1319.884033	1293.192505	87.434166
878.273804	1105.534790	1319.862549	1293.278564	87.596573
878.568237	1106.136963	1322.701660	1293.837769	86.671928
878.862610	1103.061401	1325.884766	1297.580200	87.297310
879.156921	1100.889160	1330.896118	1303.817505	88.227043
879.451172	1098.071533	1337.219604	1311.173340	89.108727
879.745422	1098.759888	1348.382202	1319.131348	88.281952
880.039612	1097.555298	1361.480591	1331.003784	88.452484
880.333679	1098.587769	1381.999146	1349.005981	88.358559
880.627686	1097.017578	1415.164673	1378.149292	88.365326
880.921692	1096.221802	1469.020752	1426.628418	88.628632
881.215698	1096.350830	1556.386353	1508.251465	89.536705
881.509460	1099.362183	1671.239380	1621.297607	91.267044
881.803345	1099.469604	1812.289063	1754.862549	91.943748
882.097046	1101.512817	1959.898804	1898.256592	92.818825
882.390808	1102.115112	2098.131104	2031.176270	93.277733
882.684448	1103.685059	2225.781250	2151.492432	93.379463
882.978027	1101.082642	2336.439941	2259.656494	93.784515
883.271545	1102.566772	2432.086426	2351.624756	93.948067
883.565002	1103.147583	2508.117432	2421.224854	93.815346
883.858398	1102.588379	2560.855225	2472.843994	93.964668
884.151733	1101.211670	2581.567383	2492.566895	93.987900
884.445068	1100.846069	2557.413818	2469.424316	93.959122
884.738281	1099.233032	2489.964600	2401.006836	93.603531
885.031433	1099.168335	2383.198486	2302.306885	93.700180
885.324585	1100.738403	2262.624268	2181.840332	93.047173
885.617676	1098.738281	2142.071777	2065.030273	92.615829
885.910645	1097.576904	2026.401489	1956.823120	92.508987
886.203552	1099.168457	1921.829590	1857.713989	92.206314
886.496521	1099.942749	1824.979004	1769.208496	92.307899
886.789368	1100.673950	1740.645996	1689.177246	91.957657
887.082153	1102.760254	1661.023071	1616.630493	92.048088
887.374817	1103.728149	1595.316040	1553.633301	91.520798
887.667480	1103.577637	1537.825073	1502.121582	91.778076
887.960083	1104.222900	1492.916382	1461.385376	91.887955
888.252625	1103.642212	1455.427734	1427.467285	92.051849
888.545166	1103.190552	1428.241699	1403.098633	92.264893
888.837524	1105.599487	1404.969849	1383.762817	92.916122
889.129883	1107.255493	1386.171875	1366.707031	93.021263
889.422241	1106.696411	1371.417358	1348.296143	91.265816
889.714478	1093.511841	1322.292847	1318.270996	98.242050
890.006714	1107.707153	1357.544556	1318.034424	84.185661
890.298767	1110.072998	1317.324585	1327.734375	105.022781
890.590881	1113.858398	1319.453735	1295.321777	88.262398
890.882935	1094.694824	1328.207642	1275.921631	77.608932
>>>>>End Processed Spectral Data<<<<<
