Jaz Data File
++++++++++++++++++++++++++++++++++++
Date: Mon Apr 22 19:25:47 2019
User: jaz
Dark Spectrum Present: Yes
Reference Spectrum Present: Yes
Processed Spectrum Present: Yes
Spectrometers: JAZA2928
Integration Time (usec): 40000 (JAZA2928)
Spectra Averaged: 10 (JAZA2928)
Boxcar Smoothing: 5 (JAZA2928)
Correct for Electrical Dark: No (JAZA2928)
Strobe/Lamp Enabled: Yes (JAZA2928)
Correct for Detector Non-linearity: No (JAZA2928)
Correct for Stray Light: No (JAZA2928)
Number of Pixels in Processed Spectrum: 2048
>>>>>Begin Processed Spectral Data<<<<<
W	D	R	S	P
190.104553	0.000000	0.000000	0.000000	0.000000
190.488098	0.000000	0.000000	0.000000	0.000000
190.871613	1077.423828	1084.994751	1068.670166	-115.622131
191.255096	1080.499390	1079.079956	1076.950684	250.008606
191.638535	0.000000	0.000000	0.000000	0.000000
192.021942	903.294739	908.865295	905.359558	37.066662
192.405334	1004.317993	1010.039124	1007.974426	63.911026
192.788696	1107.599609	1112.288330	1110.503296	61.929184
193.172012	1111.471069	1116.052246	1115.514526	88.262413
193.555313	1116.138306	1118.654663	1119.213989	122.227615
193.938568	1122.375488	1122.956299	1123.773682	240.731400
194.321793	1125.386597	1126.505127	1126.075073	61.551895
194.704987	1126.655640	1129.473267	1127.731201	38.172604
195.088150	1127.429810	1129.387207	1128.010742	29.678827
195.471298	1126.505249	1131.710083	1129.580811	59.090481
195.854401	1127.494629	1132.054199	1128.376221	19.334976
196.237457	1129.064575	1128.957031	1127.989258	999.886475
196.620499	1129.043091	1130.441040	1129.451782	29.235067
197.003494	1127.171875	1130.140137	1128.785034	54.346931
197.386475	1126.999878	1131.129395	1128.290283	31.248337
197.769424	1126.419067	1132.441406	1130.849731	73.570488
198.152344	1123.365112	1134.527832	1129.408691	54.140739
198.535217	1120.934570	1135.947266	1129.559448	57.450562
198.918076	1121.149658	1138.098022	1130.806763	56.979565
199.300903	1121.838013	1139.668091	1131.129395	52.110718
199.683670	1123.838257	1144.421387	1128.870972	24.450678
200.066422	1123.730591	1145.023560	1131.107910	34.646740
200.449142	1121.967041	1147.884277	1129.064697	27.385853
200.831848	1122.719849	1149.174683	1128.397949	21.463377
201.214508	1123.537109	1149.002686	1127.129028	14.104998
201.597137	1122.891846	1150.120972	1126.161011	12.006133
201.979736	1122.612183	1152.874146	1124.505005	6.254790
202.362274	1122.633789	1149.088623	1124.203979	5.935363
202.744827	1121.257202	1147.625977	1124.225342	11.256267
203.127319	1119.171021	1146.055908	1123.429565	15.839921
203.509796	1116.525513	1142.786621	1122.999390	24.651957
203.892227	1113.406860	1136.872070	1122.483154	38.679790
204.274643	1110.567749	1137.151489	1122.698242	45.631252
204.657013	1110.804321	1134.850342	1120.934570	42.128590
205.039352	1108.223389	1132.441406	1119.880737	48.135025
205.421661	1104.932617	1135.796753	1119.794678	48.153172
205.803940	1103.964722	1135.516968	1120.031250	50.920395
206.186188	1103.771118	1133.344727	1120.719482	57.309086
206.568405	1101.921387	1134.248169	1118.762207	52.095566
206.950592	1103.297974	1136.119263	1116.934082	41.546535
207.332748	1101.340698	1133.882446	1114.998535	41.970200
207.714859	1099.964233	1136.269775	1115.772705	43.542862
208.096939	1099.598511	1137.732422	1117.041748	45.742062
208.478989	1098.695190	1137.280762	1116.331909	45.708065
208.861008	1098.931763	1138.291626	1117.708374	47.704971
209.243011	1099.318848	1140.765137	1116.740601	42.034531
209.624969	1098.652222	1139.410034	1115.600708	41.583405
210.006897	1098.480103	1140.377808	1117.127808	44.507702
210.388794	1097.469238	1141.345703	1114.912476	39.755341
210.770645	1097.426270	1141.603882	1116.009277	42.064308
211.152481	1097.146606	1140.549927	1118.611816	49.455227
211.534286	1097.404785	1143.152344	1118.203125	45.463280
211.916061	1097.490723	1141.238159	1118.181519	47.296021
212.297791	1097.985474	1142.119995	1117.364258	43.908451
212.679489	1097.125122	1143.195435	1114.503662	37.721775
213.061157	1093.662354	1142.313599	1115.062866	43.987595
213.442795	1093.812988	1142.786743	1114.331543	41.897041
213.824402	1094.071167	1142.829712	1117.235229	47.507698
214.205963	1094.823730	1141.496216	1118.654785	51.060181
214.587524	1093.705444	1141.195190	1119.687134	54.710102
214.969025	1094.952881	1142.937378	1119.149536	50.425983
215.350510	1093.554932	1145.948486	1114.869385	40.681442
215.731949	1092.823730	1144.572021	1117.708496	48.088093
216.113358	1092.221558	1147.841309	1116.826660	44.238068
216.494736	1093.361328	1147.239014	1116.611450	43.153526
216.876083	1093.124878	1145.324707	1118.590332	48.784554
217.257401	1094.823975	1146.765747	1118.912964	46.376911
217.638702	1094.910034	1149.389771	1122.031494	49.782658
218.019943	1095.791748	1151.841553	1123.515503	49.462715
218.401169	1094.006592	1152.142700	1122.676636	49.315384
218.782349	1094.372070	1154.788208	1123.687622	48.522717
219.163498	1094.436646	1158.272583	1126.440674	50.134815
219.544632	1098.286621	1158.659668	1131.043457	54.257385
219.925705	1102.416138	1162.423584	1132.677979	50.430141
220.306778	1103.104370	1163.929199	1135.474121	53.217991
220.687805	1101.082520	1168.661011	1138.141113	54.837852
221.068802	1101.770996	1176.640503	1138.786255	49.439697
221.449738	1101.985840	1182.598145	1140.421021	47.679050
221.830673	1099.340454	1186.620117	1142.077148	48.965237
222.211563	1098.394043	1191.932617	1142.356689	46.999485
222.592438	1098.759766	1200.084106	1145.518311	46.147396
222.973267	1099.060913	1206.730225	1148.314209	45.744972
223.354065	1097.727417	1211.655518	1151.303833	47.026516
223.734848	1093.791382	1217.828369	1153.110596	47.823811
224.115555	1090.436157	1228.302734	1156.810059	48.143578
224.496262	1092.694458	1238.497559	1159.111328	45.552441
224.876923	1092.178223	1246.498535	1164.101196	46.606289
225.257568	1091.016846	1255.639526	1172.747437	49.647224
225.638168	1088.113281	1265.554688	1178.360962	50.860554
226.018723	1090.479248	1277.147583	1184.490845	50.362904
226.399277	1092.328735	1291.923462	1192.964966	50.420284
226.779785	1094.759277	1309.861206	1201.890869	49.805035
227.160263	1093.726929	1333.046875	1211.461914	49.195644
227.540695	1093.103149	1363.351685	1222.925781	48.038239
227.921112	1091.984741	1408.217529	1241.895752	47.405270
228.301483	1092.501099	1466.525879	1267.189209	46.704956
228.681824	1092.006348	1543.460083	1298.526489	45.745583
229.062134	1095.339966	1631.212891	1336.982788	45.093307
229.442413	1095.404419	1713.438232	1371.438599	44.663280
229.822647	1099.469604	1782.349976	1400.130371	44.028320
230.202881	1100.846069	1832.011841	1420.089966	43.662315
230.583054	1100.674072	1871.651245	1434.564819	43.307476
230.963196	1098.372681	1904.106934	1444.888794	43.006252
231.343292	1097.576782	1930.819946	1455.341675	42.936432
231.723404	1097.146606	1946.348755	1460.740112	42.815895
232.103439	1098.372681	1940.670654	1456.072998	42.467194
232.483459	1098.630737	1913.054321	1441.103394	42.050926
232.863434	1096.802612	1867.650757	1422.434448	42.243317
233.243393	1091.662109	1814.934814	1396.538696	42.152370
233.623306	1092.909668	1767.294434	1372.793823	41.502148
234.003174	1092.242920	1737.763672	1361.695801	41.741940
234.383041	1089.382324	1724.880371	1354.684082	41.747063
234.762848	1090.930786	1717.675293	1351.672974	41.602627
235.142639	1091.855591	1711.932495	1348.769287	41.432552
235.522385	1094.135498	1708.491089	1347.414307	41.226746
235.902115	1095.834839	1710.212036	1347.027222	40.885693
236.281799	1095.641113	1716.384766	1350.339355	41.031147
236.661438	1096.178833	1729.009888	1356.189575	41.086914
237.041077	1095.576660	1740.946899	1359.716797	40.928467
237.420654	1098.458618	1747.033569	1360.985840	40.477547
237.800217	1097.963989	1755.550659	1362.362427	40.207390
238.179733	1098.351074	1761.530029	1358.985596	39.300781
238.559219	1100.372925	1769.509644	1356.813354	38.324070
238.938690	1098.265137	1782.220703	1359.415771	38.182396
239.318100	1096.630493	1800.158325	1362.663452	37.814133
239.697510	1097.017578	1821.687988	1368.190918	37.420231
240.076859	1097.168091	1847.260986	1378.278320	37.476723
240.456177	1098.178955	1891.976440	1392.667114	37.098652
240.835464	1096.651855	1948.263184	1411.164063	36.931427
241.214722	1097.275757	2024.745728	1439.554565	36.904572
241.593948	1097.963989	2132.092285	1477.602295	36.710949
241.973129	1097.856567	2259.333740	1523.457764	36.643097
242.352295	1097.297363	2406.750000	1578.733276	36.766193
242.731415	1097.856323	2553.327148	1634.094971	36.842968
243.110519	1095.877686	2674.417480	1678.143433	36.886353
243.489578	1095.877686	2769.440186	1713.136841	36.882946
243.868607	1096.049805	2835.943115	1737.010986	36.839108
244.247604	1097.684448	2886.035156	1753.593750	36.676773
244.626541	1098.910278	2917.953125	1763.702393	36.546261
245.005493	1099.792114	2945.719727	1770.778564	36.349552
245.384369	1100.114868	2970.948975	1775.596191	36.105892
245.763229	1100.609497	2998.909180	1787.038696	36.160213
246.142059	1102.760254	3052.937500	1805.341919	36.026554
246.520859	1102.351685	3154.261475	1836.034058	35.756077
246.899612	1100.889038	3308.366943	1892.148438	35.844498
247.278336	1101.942993	3494.518799	1955.532715	35.676601
247.657043	1102.394653	3664.540039	2014.400024	35.595379
248.035690	1101.405273	3803.309570	2064.879639	35.659084
248.414322	1100.867676	3921.002197	2107.702148	35.701649
248.792908	1099.297607	4008.367432	2140.178955	35.780556
249.171478	1099.835205	4061.642822	2160.590332	35.814449
249.550003	1101.104126	4068.827148	2166.397461	35.895981
249.928482	1100.588013	4035.661621	2154.030273	35.891510
250.306961	1099.620117	3942.724854	2121.639160	35.947289
250.685364	1099.362061	3780.747803	2067.051758	36.089165
251.063782	1100.652466	3577.324951	1991.579956	35.972763
251.442123	1101.168701	3379.536865	1924.754639	36.148064
251.820450	1102.416138	3241.261963	1877.092651	36.219372
252.198761	1102.201050	3168.177490	1849.304199	36.162228
252.576996	1101.276245	3111.740479	1828.161987	36.155121
252.955246	1101.921509	3063.153809	1813.020386	36.257759
253.333420	1101.039673	3017.792969	1799.319580	36.430347
253.711578	1100.437500	2990.306152	1789.770264	36.475166
254.089706	1100.308472	2965.872803	1780.629028	36.467278
254.467804	1098.716675	2948.537354	1772.972290	36.449783
254.845871	1099.856567	2933.202148	1767.272705	36.404274
255.223877	1098.996338	2907.005371	1759.551147	36.534927
255.601898	1100.480347	2870.334229	1741.678101	36.228851
255.979828	1098.265137	2818.026367	1722.665161	36.307365
256.357727	1098.630737	2763.826172	1703.372559	36.316566
256.735657	1098.480225	2741.457764	1691.112793	36.070644
257.113525	1098.071411	2758.492432	1694.726196	35.933945
257.491333	1098.480347	2812.197754	1709.114868	35.632160
257.869110	1097.835083	2891.799072	1737.591797	35.661625
258.246887	1097.684448	3007.146729	1775.574951	35.501644
258.624573	1097.232788	3174.092285	1832.162598	35.386593
259.002289	1097.275757	3402.142090	1909.204224	35.226707
259.379944	1098.566284	3704.265625	2012.937500	35.091202
259.757538	1098.415649	4068.052490	2137.834717	35.001556
260.135162	1099.318970	4428.032715	2260.968262	34.897842
260.512665	1100.760010	4715.939453	2357.711182	34.768707
260.890228	1099.792114	4904.715332	2423.074219	34.778152
261.267700	1101.147095	5016.622070	2459.035645	34.680046
261.645142	1101.942871	5083.039063	2483.275146	34.697285
262.022552	1103.211914	5120.677734	2489.985840	34.518623
262.399994	1102.717285	5125.904297	2489.985840	34.481831
262.777313	1103.857178	5080.715820	2471.704102	34.395161
263.154602	1104.911011	4961.216309	2429.440674	34.347118
263.531921	1102.824707	4760.159180	2355.969238	34.263874
263.909149	1102.459106	4480.791504	2261.161865	34.298069
264.286377	1101.491333	4192.583984	2160.203125	34.250404
264.663574	1099.878174	3972.277100	2081.892334	34.187946
265.040710	1101.921509	3845.767090	2035.176880	34.012676
265.417816	1099.168457	3795.782227	2014.464844	33.942436
265.794891	1099.340576	3797.803955	2011.130981	33.789246
266.171936	1099.104004	3841.508057	2022.659302	33.676849
266.548950	1099.921265	3899.708740	2037.585938	33.490566
266.925934	1101.383789	3954.425049	2054.319092	33.400684
267.302887	1100.329834	4020.368896	2071.245850	33.250103
267.679810	1102.308594	4091.776367	2089.592041	33.025391
268.056671	1102.652710	4176.216797	2111.272461	32.815968
268.433502	1101.749512	4266.658203	2137.103271	32.713543
268.810333	1101.684814	4350.517578	2161.515137	32.621880
269.187073	1099.039429	4426.677734	2181.926270	32.542206
269.563843	1101.362305	4488.276855	2200.444824	32.450848
269.940521	1100.588013	4541.895996	2214.209961	32.360424
270.317200	1099.899780	4605.710449	2231.351807	32.273621
270.693848	1099.146973	4713.035645	2262.796631	32.199379
271.070435	1097.705933	4884.304199	2316.867676	32.196754
271.447021	1095.856323	5082.371582	2375.090088	32.089024
271.823547	1093.920532	5251.705078	2426.945801	32.060951
272.200043	1092.931152	5382.043457	2466.413086	32.022522
272.576538	1096.501465	5496.100098	2497.169678	31.836273
272.952972	1096.630493	5606.415527	2528.055176	31.740419
273.329346	1099.641602	5698.835449	2558.403076	31.717764
273.705688	1097.490723	5766.155762	2575.351318	31.654886
274.082062	1094.221558	5809.837891	2585.718506	31.628887
274.458344	1094.049438	5806.568848	2583.868652	31.614069
274.834595	1093.060059	5748.755371	2563.349854	31.580456
275.210846	1093.748413	5652.141113	2529.238281	31.491142
275.587006	1095.361572	5538.041016	2497.040771	31.550310
275.963165	1096.135864	5473.688965	2476.220947	31.526403
276.339294	1095.920898	5444.265625	2465.208740	31.489864
276.715393	1094.329224	5440.265137	2464.176270	31.520184
277.091461	1093.942017	5437.361816	2460.864258	31.471106
277.467438	1092.931152	5444.867676	2457.186035	31.348227
277.843445	1094.372192	5460.289551	2461.014648	31.302526
278.219452	1097.361816	5481.604004	2469.230469	31.290895
278.595337	1097.275757	5513.521484	2476.758301	31.236546
278.971191	1097.318726	5547.805664	2486.178711	31.206923
279.347046	1096.716553	5572.969727	2490.566650	31.138769
279.722870	1095.727051	5607.189453	2495.663818	31.030664
280.098663	1096.953125	5631.234863	2499.836670	30.939487
280.474396	1098.222168	5683.004883	2509.622803	30.784460
280.850098	1099.727539	5749.679688	2525.839844	30.669397
281.225800	1099.770630	5852.595703	2557.822266	30.677578
281.601440	1099.125488	5983.816895	2596.450684	30.653425
281.977051	1098.996338	6153.665527	2644.090820	30.567669
282.352600	1100.265503	6314.695801	2691.000000	30.506392
282.728149	1102.996948	6448.454590	2727.154785	30.383888
283.103668	1104.007935	6547.198242	2750.555664	30.249681
283.479156	1102.588379	6633.079590	2772.945557	30.202692
283.854553	1102.502319	6720.380859	2796.088135	30.146358
284.229950	1098.480347	6819.877930	2823.640137	30.152769
284.605347	1096.501587	6916.750000	2853.364258	30.185354
284.980652	1094.888428	7007.728516	2875.452881	30.113523
285.355988	1092.500977	7095.331055	2896.832031	30.058006
285.731201	1094.243042	7173.210938	2920.534180	30.042784
286.106445	1094.888428	7234.551758	2937.052002	30.004311
286.481659	1094.802368	7309.464355	2949.634277	29.846062
286.856781	1091.490112	7380.248047	2966.862305	29.821028
287.231934	1093.942017	7436.878418	2985.445313	29.820625
287.607025	1097.254272	7468.667480	2992.005371	29.738317
287.982056	1100.114868	7471.699707	2989.080322	29.646711
288.357086	1103.577637	7457.009766	2980.390625	29.540144
288.732086	1104.201294	7427.049805	2962.840088	29.395592
289.107025	1104.373413	7399.476563	2955.376709	29.403860
289.481934	1106.137085	7369.988770	2943.311035	29.329781
289.856842	1104.395020	7367.579590	2933.761475	29.208248
290.231659	1103.276611	7383.409668	2933.459961	29.142431
290.606506	1102.717407	7399.583984	2934.083984	29.083776
290.981262	1104.029419	7420.532715	2936.170166	29.005617
291.355988	1103.341064	7460.408203	2946.580078	28.995115
291.730713	1101.276245	7499.531250	2957.549072	29.012175
292.105377	1100.996582	7523.040527	2966.453613	29.047714
292.480011	1102.115112	7531.126953	2975.702148	29.142691
292.854614	1101.340698	7544.418945	2988.606934	29.291376
293.229187	1102.093628	7573.949707	3000.694336	29.336264
293.603729	1104.115356	7617.632324	3021.879883	29.442842
293.978241	1103.771240	7652.840332	3043.215820	29.614048
294.352692	1101.964478	7681.683105	3063.476318	29.811485
294.727081	1101.061035	7708.525391	3093.093018	30.148207
295.101501	1098.609253	7761.865234	3129.592285	30.480339
295.475830	1095.512085	7848.133301	3169.919678	30.720037
295.850189	1095.038940	7991.893555	3232.809326	30.996311
296.224457	1091.683716	8203.381836	3313.916260	31.247564
296.598694	1089.403809	8463.350586	3408.573242	31.450857
296.972931	1089.016602	8729.597656	3507.725098	31.656080
297.347107	1088.586426	8935.946289	3594.531250	31.933603
297.721283	1087.898071	9061.037109	3650.774902	32.143887
298.095367	1089.769409	9098.051758	3679.703369	32.340694
298.469452	1092.737427	9080.931641	3692.974121	32.550995
298.843475	1092.199707	9037.636719	3689.382080	32.687721
299.217529	1094.587158	8972.337891	3676.778320	32.778278
299.591492	1096.436890	8892.672852	3659.077393	32.870228
299.965424	1098.135864	8774.442383	3629.030518	32.970211
300.339325	1102.179565	8594.958008	3581.260986	33.086281
300.713196	1103.513062	8374.263672	3516.758057	33.191143
301.087036	1105.448730	8138.126465	3447.480713	33.302135
301.460815	1104.975586	7937.585938	3382.720215	33.336376
301.834564	1103.771118	7774.533203	3331.187256	33.390728
302.208282	1103.125854	7649.119141	3290.343018	33.413071
302.582001	1103.297974	7531.814453	3248.961914	33.377281
302.955658	1103.297974	7423.306641	3211.688232	33.360558
303.329254	1100.889038	7332.241699	3184.222412	33.433086
303.702820	1101.276245	7248.747070	3160.950928	33.504425
304.076416	1100.910645	7176.007813	3136.323975	33.504211
304.449921	1099.491089	7122.452637	3115.267822	33.468201
304.823395	1099.749146	7062.165527	3092.254150	33.417744
305.196838	1099.426636	7003.878418	3071.219482	33.395020
305.570251	1097.921021	6932.858887	3044.893555	33.367493
305.943604	1096.479980	6870.485840	3021.729004	33.343384
306.316986	1096.350952	6825.146973	3005.167969	33.319691
306.690277	1094.759399	6800.218750	2995.510742	33.314606
307.063507	1094.200073	6800.971680	2989.424072	33.210091
307.436768	1095.038940	6830.372070	2996.952148	33.161339
307.809937	1092.328979	6880.078125	3011.104004	33.152355
308.183136	1093.081665	6951.484375	3033.214600	33.117096
308.556244	1091.640747	7039.259277	3060.336182	33.100567
308.929321	1092.802002	7145.702637	3089.995850	32.995651
309.302399	1091.963379	7244.488770	3117.633545	32.924206
309.675446	1093.597778	7353.104492	3153.853271	32.914021
310.048401	1095.167969	7449.568359	3184.007568	32.872334
310.421356	1093.662354	7553.624512	3213.796143	32.819603
310.794281	1094.049438	7670.606445	3244.982910	32.706074
311.167145	1096.264771	7784.168945	3284.557617	32.720161
311.539978	1100.437378	7864.242676	3303.097656	32.565399
311.912781	1102.588135	7910.098145	3310.001709	32.426155
312.285553	1101.147095	7899.667480	3302.624268	32.381706
312.658295	1102.308472	7851.940430	3287.138428	32.369617
313.031006	1101.254639	7786.728027	3269.587646	32.433498
313.403656	1101.792358	7728.354980	3250.165771	32.420635
313.776276	1101.663208	7684.435547	3234.809326	32.404980
314.148865	1102.029053	7688.415527	3231.668945	32.333965
314.521454	1105.040161	7694.351563	3232.852295	32.291870
314.893982	1103.147583	7677.596680	3228.421631	32.326267
315.266449	1101.018311	7620.212891	3206.461670	32.296066
315.638885	1095.899292	7539.772949	3179.598389	32.336128
316.011322	1094.544189	7452.429199	3151.659424	32.355339
316.383667	1094.759277	7385.065430	3131.377197	32.377087
316.756042	1094.458130	7327.316895	3108.922852	32.320076
317.128326	1094.049561	7277.848145	3087.694580	32.239811
317.500610	1094.329102	7220.959473	3068.036133	32.215214
317.872833	1094.157104	7145.443848	3041.882568	32.186966
318.245087	1094.608643	7047.453613	3010.308594	32.181252
318.617218	1093.468872	6948.925293	2980.907227	32.233837
318.989319	1094.780762	6877.604980	2957.183838	32.205769
319.361420	1097.684448	6835.212402	2943.934570	32.178493
319.733490	1100.889160	6807.423828	2937.998291	32.193077
320.105530	1099.792114	6786.690430	2928.125977	32.149929
320.477509	1100.566528	6764.343750	2911.908936	31.981173
320.849457	1101.512817	6742.125488	2902.940186	31.936731
321.221375	1099.899780	6731.974609	2898.832275	31.940849
321.593231	1100.200806	6729.565430	2892.853027	31.844664
321.965088	1100.802979	6731.823242	2891.218262	31.795574
322.336884	1102.459106	6746.857422	2892.616211	31.715641
322.708618	1100.265381	6786.432617	2901.219238	31.672546
323.080414	1101.254761	6844.159668	2916.963135	31.616550
323.452118	1102.179565	6947.871582	2945.418701	31.531582
323.823761	1099.899658	7085.007324	2982.993164	31.462986
324.195343	1102.846313	7229.239258	3024.417725	31.365461
324.566925	1101.061035	7372.160645	3067.304688	31.354050
324.938507	1099.189941	7509.081055	3107.610840	31.333151
325.310059	1099.964355	7620.814453	3141.572021	31.308918
325.681519	1099.663208	7736.399902	3177.942139	31.314770
326.052948	1098.802856	7852.091797	3207.279053	31.221470
326.424408	1094.458130	7916.723145	3229.088379	31.289173
326.795776	1097.275757	7936.703613	3232.443848	31.218517
327.167084	1095.705688	7906.787109	3220.119629	31.190554
327.538391	1093.490356	7825.529785	3192.825684	31.184240
327.909668	1095.296997	7721.903320	3158.434326	31.134144
328.280884	1095.813232	7621.073730	3126.774414	31.124598
328.652100	1096.802734	7529.922363	3098.491943	31.115374
329.023254	1097.856445	7453.332520	3072.768066	31.074173
329.394348	1098.200562	7390.443359	3049.109131	31.004980
329.765442	1097.834839	7310.196777	3022.589600	30.982656
330.136475	1098.351074	7226.937988	2998.629639	31.006798
330.507538	1099.878174	7159.510742	2973.895508	30.926252
330.878479	1097.619873	7106.687500	2959.119385	30.978176
331.249420	1098.673706	7078.705078	2950.000000	30.958471
331.620331	1097.168091	7080.082520	2954.645752	31.046368
331.991211	1096.092896	7099.223633	2963.377930	31.105186
332.362030	1094.716309	7135.120605	2976.927979	31.160358
332.732819	1093.877441	7177.190430	2991.833008	31.199373
333.103577	1092.888184	7218.851074	3004.910156	31.211779
333.474304	1093.103271	7245.328125	3016.008057	31.255438
333.845001	1093.103271	7266.728516	3026.202881	31.312229
334.215668	1095.318481	7282.107422	3030.117188	31.273067
334.586273	1096.221802	7310.819824	3039.731445	31.273296
334.956818	1097.490845	7336.048340	3048.356201	31.271097
335.327362	1096.437012	7358.523926	3056.722656	31.304031
335.697876	1099.534058	7373.127930	3058.464844	31.225018
336.068329	1099.964355	7380.677734	3058.185303	31.178320
336.438751	1099.964233	7374.892578	3056.550537	31.181015
336.809174	1103.233521	7369.923828	3057.690430	31.188025
337.179504	1103.018433	7381.000000	3062.465088	31.211412
337.549896	1103.469971	7413.283203	3069.541260	31.158945
337.920135	1105.814331	7465.849609	3088.941650	31.181074
338.290375	1104.115234	7520.394043	3110.299316	31.267096
338.660614	1103.835815	7566.679688	3126.538086	31.297403
339.030792	1104.975708	7605.523438	3139.786865	31.302149
339.400940	1107.556641	7646.431152	3151.874268	31.264059
339.771027	1106.309204	7679.596680	3164.047852	31.304560
340.141083	1106.825317	7714.590820	3176.715820	31.325121
340.511139	1107.965210	7751.798828	3190.696289	31.348331
340.881134	1105.642456	7796.600098	3205.085693	31.377323
341.251068	1105.599243	7825.829590	3212.204590	31.347221
341.621002	1104.373291	7840.841797	3222.420898	31.441511
341.990875	1101.233154	7849.101563	3221.087402	31.415171
342.360718	1099.964233	7858.995117	3220.549316	31.374098
342.730560	1100.136230	7879.062012	3226.206055	31.362930
343.100311	1097.834961	7921.325195	3241.197510	31.411528
343.470032	1097.383301	7984.279297	3266.791992	31.500530
343.839752	1097.125122	8068.074707	3296.085693	31.544632
344.209442	1098.028564	8161.526855	3326.777588	31.553049
344.579041	1096.523071	8264.938477	3360.114990	31.577295
344.948639	1095.813232	8365.853516	3393.818115	31.609247
345.318176	1098.845825	8455.262695	3428.941162	31.674322
345.687714	1098.286621	8552.909180	3458.278076	31.658094
346.057190	1098.200562	8625.068359	3487.873535	31.748569
346.426636	1100.136230	8678.581055	3511.553223	31.819418
346.796051	1099.297363	8703.013672	3522.995850	31.875183
347.165405	1099.985596	8698.797852	3521.188965	31.862917
347.534729	1099.598633	8657.610352	3507.165771	31.854504
347.904083	1099.770752	8593.752930	3485.743896	31.838520
348.273315	1099.211426	8511.786133	3463.289795	31.892811
348.642517	1099.491089	8436.227539	3441.437500	31.920818
349.011719	1099.749146	8361.422852	3419.735840	31.948376
349.380890	1096.781006	8308.834961	3403.389893	31.982691
349.749969	1097.942505	8260.614258	3388.571045	31.980083
350.119049	1101.147217	8238.375977	3380.053711	31.929852
350.488098	1102.308716	8235.384766	3379.623291	31.926121
350.857117	1103.534668	8238.632813	3384.548584	31.968922
351.226074	1102.179565	8268.012695	3395.388428	32.001987
351.595001	1102.910889	8313.008789	3411.842041	32.023575
351.963867	1102.910889	8365.336914	3432.726318	32.080402
352.332764	1099.813721	8432.206055	3455.503662	32.127167
352.701538	1099.146973	8501.246094	3479.785889	32.161674
353.070343	1100.738525	8591.322266	3507.961670	32.136654
353.439056	1100.867676	8685.075195	3541.277588	32.177521
353.807770	1101.233276	8792.744141	3581.755615	32.250134
354.176453	1100.243896	8898.822266	3619.631104	32.305725
354.545105	1096.781128	9022.581055	3661.055664	32.353508
354.913666	1096.931641	9173.868164	3708.846680	32.337940
355.282227	1098.652344	9334.511719	3763.713379	32.359234
355.650757	1095.770264	9501.285156	3822.366211	32.438179
356.019226	1095.899292	9686.339844	3880.437744	32.414387
356.387695	1097.275757	9897.461914	3949.242188	32.408020
356.756104	1097.727417	10147.257813	4035.166504	32.459576
357.124451	1096.458496	10424.130859	4130.834473	32.530903
357.492828	1095.856201	10681.905273	4215.296387	32.541458
357.861084	1096.716553	10896.963867	4289.456543	32.578159
358.229401	1096.436890	11065.134766	4347.141113	32.609112
358.597595	1100.028687	11179.878906	4389.060547	32.629768
358.965759	1098.308105	11285.785156	4427.107910	32.675411
359.333923	1097.576904	11397.927734	4466.339355	32.705318
359.702057	1099.770630	11556.829102	4521.958984	32.726109
360.070129	1098.329590	11736.874023	4590.526855	32.825893
360.438141	1100.695435	11947.889648	4666.944336	32.877155
360.806122	1102.717163	12195.875977	4751.879395	32.895607
361.174133	1104.502441	12475.975586	4849.160156	32.930279
361.542053	1106.201660	12787.734375	4957.926270	32.972767
361.909912	1104.782104	13059.295898	5052.583008	33.023518
362.277771	1104.072266	13289.452148	5129.001465	33.030807
362.645599	1102.523560	13435.535156	5176.791992	33.035473
363.013367	1101.684937	13487.328125	5200.429688	33.092705
363.381134	1101.878540	13454.527344	5193.568359	33.123989
363.748810	1100.824707	13341.522461	5156.961426	33.136486
364.116455	1101.792480	13151.778320	5092.824219	33.120632
364.484100	1100.136353	12877.100586	5005.114258	33.157764
364.851715	1097.426270	12500.042969	4877.270996	33.148922
365.219238	1095.641113	12017.209961	4714.885254	33.138500
365.586761	1094.071167	11496.714844	4540.670410	33.131954
365.954224	1092.587036	11045.755859	4388.285645	33.112053
366.321686	1092.113770	10687.518555	4269.367676	33.112247
366.689117	1093.275269	10452.758789	4193.121582	33.119843
367.056458	1096.824097	10290.286133	4136.340332	33.061714
367.423737	1097.533936	10172.636719	4095.948486	33.040009
367.791077	1098.630859	10063.891602	4060.524902	33.037457
368.158295	1099.362061	9978.162109	4030.434570	33.012035
368.525543	1099.899658	9899.936523	4004.173584	33.002975
368.892700	1102.222534	9826.788086	3983.289063	33.022465
369.259827	1103.233521	9775.147461	3966.642334	33.019341
369.626953	1104.567017	9742.949219	3959.049316	33.044178
369.994019	1105.083130	9712.256836	3947.542969	33.024311
370.361053	1105.814453	9696.125977	3943.112305	33.029045
370.728027	1104.201294	9690.146484	3942.359131	33.055855
371.094971	1102.545166	9704.665039	3947.005371	33.066967
371.461914	1099.792114	9732.152344	3953.780518	33.061504
371.828796	1099.964355	9764.951172	3963.631104	33.048717
372.195618	1099.383545	9808.225586	3980.730225	33.085304
372.562408	1099.598633	9839.046875	3993.763916	33.116112
372.929199	1098.867310	9875.116211	4007.464600	33.141689
373.295898	1096.544434	9908.454102	4025.573975	33.239441
373.662598	1097.576782	9953.125977	4035.575195	33.176922
374.029236	1098.093018	9996.227539	4050.888916	33.184437
374.395844	1098.802856	10033.027344	4061.750244	33.164013
374.762421	1100.566528	10077.097656	4077.989014	33.168964
375.128967	1099.555542	10134.545898	4098.658203	33.194309
375.495483	1103.448608	10215.415039	4128.554199	33.199261
375.861908	1101.125854	10344.572266	4170.645508	33.207523
376.228333	1100.609497	10513.862305	4227.211914	33.214901
376.594727	1098.265137	10751.439453	4301.371582	33.181900
376.961090	1097.770386	11016.181641	4386.392578	33.156742
377.327393	1101.211792	11269.352539	4467.736328	33.108555
377.693665	1099.620117	11461.527344	4541.659180	33.218201
378.059906	1100.243896	11601.781250	4594.160156	33.270523
378.426086	1101.190186	11685.490234	4626.013672	33.302376
378.792267	1100.781494	11717.967773	4640.187988	33.336575
379.158386	1100.200806	11706.439453	4639.779297	33.372612
379.524445	1098.006958	11674.457031	4631.025391	33.404579
379.890503	1099.964233	11605.610352	4614.485352	33.453640
380.256531	1100.996582	11494.047852	4582.653320	33.499851
380.622467	1102.953857	11331.468750	4536.540527	33.568771
380.988403	1103.255005	11130.669922	4477.393066	33.649132
381.354279	1101.104126	10936.257813	4420.031738	33.745564
381.720154	1099.426636	10784.260742	4370.993164	33.780304
382.085968	1100.738525	10692.442383	4342.925293	33.801991
382.451752	1099.491089	10663.148438	4339.526855	33.878624
382.817474	1100.028809	10677.924805	4354.410645	33.978043
383.183197	1101.512939	10747.503906	4384.543457	34.035179
383.548859	1101.211792	10817.749023	4416.697754	34.122093
383.914490	1099.491211	10895.329102	4450.185547	34.205284
384.280060	1099.276123	10966.520508	4482.253906	34.284931
384.645599	1098.802856	11036.163086	4516.839355	34.395821
385.011108	1096.781128	11120.754883	4551.145020	34.461021
385.376617	1095.426147	11219.089844	4591.235352	34.531067
385.742035	1095.684082	11332.500977	4636.725098	34.591232
386.107452	1093.361328	11437.826172	4683.311523	34.704067
386.472778	1093.210815	11530.417969	4729.704102	34.841633
386.838135	1090.823364	11626.559570	4772.397949	34.943687
387.203430	1090.328735	11692.825195	4808.811035	35.071766
387.568634	1089.446777	11741.561523	4842.557129	35.233475
387.933838	1091.296509	11771.308594	4863.763672	35.322689
388.299042	1091.855713	11806.624023	4883.379395	35.385960
388.664124	1089.403809	11833.939453	4901.252441	35.477093
389.029236	1092.931152	11843.661133	4921.168945	35.609097
389.394318	1094.114136	11856.931641	4938.074707	35.715187
389.759308	1094.157104	11859.254883	4959.001953	35.901623
390.124298	1094.415161	11897.474609	4989.715332	36.057381
390.489227	1096.178833	11985.441406	5031.440918	36.138924
390.854126	1096.350830	12100.639648	5087.125000	36.265625
391.218964	1097.748901	12246.528320	5152.832031	36.372440
391.583771	1097.641479	12404.568359	5219.529297	36.454536
391.948578	1094.372192	12542.930664	5286.956543	36.621067
392.313354	1092.436401	12655.502930	5348.555176	36.807873
392.678040	1094.522705	12759.365234	5401.873535	36.925922
393.042694	1091.554565	12871.121094	5462.547363	37.106567
393.407349	1093.705322	12997.244141	5528.620605	37.257114
393.771942	1094.630371	13137.218750	5599.597168	37.408627
394.136505	1093.985107	13233.640625	5653.539551	37.559177
394.501007	1091.145996	13250.416016	5679.284668	37.733669
394.865479	1092.113770	13191.269531	5671.003418	37.844704
395.229919	1090.715820	13059.208984	5639.902832	38.009689
395.594360	1094.264771	12900.953125	5601.984863	38.179379
395.958710	1098.007080	12755.558594	5559.548828	38.271690
396.323029	1098.953491	12622.725586	5524.727051	38.405594
396.687286	1099.254517	12495.181641	5494.551758	38.569019
397.051544	1100.932129	12373.447266	5458.934570	38.660423
397.415771	1098.888794	12218.524414	5414.692871	38.812462
397.779938	1099.426636	12045.384766	5359.481445	38.918976
398.144043	1100.803101	11876.718750	5311.152832	39.071850
398.508148	1099.383545	11731.345703	5272.180176	39.247665
398.872192	1099.039429	11617.761719	5244.069336	39.406208
399.236237	1099.297485	11542.204102	5228.110352	39.537010
399.600189	1097.060669	11490.456055	5218.044434	39.650024
399.964111	1095.920776	11451.311523	5223.206543	39.856396
400.328003	1094.866943	11420.555664	5225.142090	40.000000
400.691925	1093.081787	11410.338867	5229.937988	40.096478
401.055695	1093.554932	11395.217773	5240.240723	40.252583
401.419495	1093.404297	11390.186523	5251.446777	40.381962
401.783234	1092.522583	11416.532227	5272.223145	40.485245
402.146942	1093.490356	11432.211914	5287.880859	40.569721
402.510620	1096.071167	11475.981445	5317.066895	40.665051
402.874237	1096.910034	11545.322266	5356.233887	40.765274
403.237823	1097.942505	11646.604492	5412.734863	40.903694
403.601379	1097.899536	11783.717773	5487.562012	41.079330
403.964874	1097.598389	11953.416016	5563.743164	41.140564
404.328369	1098.845825	12137.160156	5647.688965	41.209583
404.691772	1101.899902	12298.964844	5733.484375	41.364273
405.055176	1100.394409	12461.372070	5806.418457	41.422703
405.418549	1100.760010	12608.122070	5879.352051	41.526386
405.781860	1100.953613	12710.436523	5936.907715	41.655209
406.145142	1100.372925	12804.383789	5988.612793	41.765511
406.508362	1096.910034	12858.259766	6019.885742	41.857235
406.871552	1096.071289	12872.971680	6043.135742	42.006508
407.234741	1095.533569	12855.744141	6044.060547	42.078556
407.597870	1096.286377	12795.436523	6028.488770	42.158634
407.960938	1099.082397	12714.909180	6011.498047	42.290707
408.323975	1098.759766	12628.490234	5983.494141	42.366425
408.686981	1099.318970	12567.297852	5964.437988	42.423512
409.049957	1099.405029	12529.293945	5967.514160	42.591049
409.412903	1100.050293	12531.552734	5979.602051	42.685131
409.775787	1099.942749	12562.309570	6006.078125	42.802113
410.138611	1100.652466	12608.766602	6038.210938	42.905018
410.501434	1103.900269	12662.795898	6071.633301	42.977573
410.864227	1104.609985	12703.165039	6100.776855	43.075771
411.226929	1104.502441	12739.277344	6130.501465	43.198074
411.589630	1104.696045	12787.863281	6155.644043	43.232697
411.952271	1103.835815	12802.446289	6170.592285	43.310753
412.314911	1103.083008	12808.704102	6191.434082	43.469296
412.677490	1101.577393	12819.889648	6202.596680	43.530327
413.040009	1104.545532	12832.342773	6204.682617	43.487598
413.402496	1102.523682	12817.157227	6199.176758	43.506721
413.764984	1102.652832	12790.637695	6188.767090	43.515751
414.127380	1100.953613	12777.344727	6181.776855	43.513645
414.489777	1100.329956	12783.412109	6191.304688	43.575611
414.852112	1101.104248	12831.394531	6211.457520	43.565449
415.214386	1100.932129	12908.696289	6245.677734	43.570873
415.576660	1100.222290	13008.063477	6295.791016	43.631493
415.938904	1098.695190	13161.844727	6360.443848	43.618366
416.301086	1101.211792	13343.672852	6436.475098	43.579990
416.663208	1101.512817	13534.774414	6517.409668	43.559746
417.025299	1097.964111	13747.102539	6608.948242	43.568062
417.387390	1097.641479	13993.647461	6710.143555	43.521244
417.749420	1097.383301	14281.855469	6832.416016	43.498386
418.111389	1097.576904	14608.261719	6978.498535	43.527935
418.473328	1096.738037	14982.374023	7135.830078	43.491650
418.835266	1094.673340	15378.788086	7308.238770	43.499828
419.197144	1096.781128	15816.389648	7497.982910	43.487579
419.558960	1096.092896	16293.288086	7705.384766	43.490208
419.920746	1095.684204	16814.921875	7940.596680	43.544815
420.282471	1095.899292	17418.888672	8217.125977	43.626976
420.644226	1094.608887	18049.289063	8500.170898	43.678574
421.005920	1092.393433	18652.761719	8784.658203	43.804688
421.367523	1092.909668	19205.388672	9051.100586	43.937614
421.729126	1092.436401	19689.105469	9278.439453	44.018650
422.090668	1091.640503	20103.029297	9472.678711	44.084301
422.452179	1092.414917	20437.283203	9640.249023	44.186569
422.813660	1092.156860	20766.935547	9807.193359	44.295471
423.175110	1089.382324	21078.695313	9968.375000	44.418697
423.536469	1089.016724	21354.472656	10109.209961	44.510193
423.897858	1088.328369	21574.929688	10231.676758	44.630871
424.259155	1086.242065	21651.544922	10288.243164	44.745274
424.620453	1086.134644	21666.791016	10328.053711	44.905853
424.981689	1091.188965	21630.486328	10330.849609	44.985279
425.342865	1092.092285	21562.048828	10316.094727	45.061169
425.704041	1091.769653	21472.617188	10297.448242	45.168282
426.065186	1093.769775	21369.960938	10268.670898	45.249630
426.426239	1094.565674	21230.953125	10224.493164	45.340446
426.787262	1096.522949	20996.988281	10132.912109	45.407928
427.148254	1096.888672	20678.130859	10007.455078	45.505623
427.509216	1098.028442	20293.246094	9845.822266	45.572781
427.870178	1098.222046	19842.652344	9650.377930	45.625053
428.231049	1097.942383	19410.876953	9454.870117	45.634018
428.591858	1100.179321	18984.113281	9263.449219	45.645832
428.952698	1098.910278	18575.439453	9080.544922	45.670593
429.313446	1099.189941	18204.597656	8910.932617	45.668262
429.674164	1101.985962	17855.242188	8757.408203	45.695133
430.034851	1101.147217	17533.355469	8613.412109	45.716705
430.395477	1100.244019	17253.707031	8482.878906	45.703110
430.756104	1099.297607	17029.400391	8381.618164	45.714211
431.116699	1097.297241	16851.013672	8292.510742	45.673115
431.477203	1095.727295	16712.544922	8236.138672	45.722576
431.837646	1097.318848	16644.773438	8200.607422	45.687790
432.198090	1098.243652	16616.832031	8193.166016	45.718864
432.558502	1095.619629	16627.585938	8196.219727	45.716038
432.918884	1095.641113	16653.998047	8213.663086	45.750473
433.279205	1094.049561	16710.177734	8258.485352	45.878437
433.639465	1093.533325	16786.314453	8302.877930	45.940517
433.999756	1095.060425	16865.056641	8359.464844	46.064720
434.359924	1097.211182	16953.216797	8414.504883	46.148407
434.720093	1097.899536	17034.044922	8461.047852	46.204075
435.080200	1099.641602	17095.513672	8510.022461	46.326832
435.440277	1101.211670	17160.146484	8555.447266	46.417995
435.800354	1099.275879	17185.830078	8595.108398	46.596878
436.160370	1097.340210	17192.820313	8624.465820	46.765461
436.520325	1099.189819	17192.820313	8657.286133	46.963276
436.880249	1098.265137	17205.078125	8688.366211	47.123547
437.240112	1098.050171	17215.617188	8712.669922	47.244225
437.599976	1098.265137	17262.482422	8754.955078	47.368145
437.959808	1097.662964	17333.457031	8810.102539	47.502693
438.319519	1096.350952	17413.857422	8879.100586	47.695702
438.679260	1091.145996	17536.646484	8970.379883	47.911186
439.038940	1092.586914	17707.978516	9070.909180	48.017662
439.398590	1092.414795	17931.275391	9199.977539	48.147926
439.758179	1092.866577	18226.859375	9361.116211	48.256413
440.117767	1095.124878	18574.494141	9545.268555	48.343529
440.477295	1095.490601	18934.453125	9739.077148	48.453415
440.836792	1095.920776	19279.357422	9929.917969	48.582657
441.196198	1098.867310	19575.050781	10096.498047	48.698536
441.555603	1098.544800	19804.392578	10229.675781	48.814312
441.914978	1098.265137	19959.164063	10329.688477	48.944771
442.274323	1098.738403	20082.167969	10397.954102	48.985962
442.633575	1103.728149	20140.388672	10450.500000	49.098801
442.992859	1103.685181	20138.429688	10472.243164	49.218197
443.352051	1103.384033	20087.412109	10460.522461	49.289536
443.711182	1105.491943	19969.117188	10423.744141	49.397991
444.070313	1103.921753	19825.337891	10375.716797	49.525074
444.429382	1103.771240	19678.630859	10321.280273	49.623573
444.788452	1103.448608	19573.458984	10285.855469	49.715225
445.147430	1101.641968	19542.746094	10288.092773	49.815083
445.506409	1097.963989	19594.320313	10331.881836	49.922905
445.865295	1094.264771	19736.939453	10414.903320	49.996254
446.224182	1092.888184	19956.279297	10542.941406	50.097317
446.583038	1093.899048	20226.097656	10685.453125	50.133041
446.941833	1092.630005	20505.294922	10842.676758	50.225185
447.300598	1093.597778	20762.875000	11001.341797	50.371674
447.659302	1091.877197	20991.054688	11130.089844	50.445366
448.018005	1093.791504	21158.558594	11225.434570	50.494694
448.376648	1093.597900	21260.806641	11289.980469	50.559216
448.735229	1096.652100	21288.230469	11317.768555	50.620689
449.093781	1098.157715	21246.203125	11307.358398	50.670929
449.452301	1100.308350	21122.595703	11259.180664	50.737820
449.810791	1103.577759	20923.970703	11161.425781	50.744946
450.169220	1103.900269	20623.998047	11027.452148	50.837612
450.527618	1102.373169	20295.289063	10865.174805	50.866692
450.885956	1103.706665	20003.423828	10720.145508	50.881390
451.244263	1103.771118	19716.507813	10581.827148	50.922421
451.602539	1104.781982	19494.673828	10473.877930	50.946983
451.960785	1104.480835	19310.414063	10391.395508	51.010376
452.318970	1108.094238	19172.310547	10331.258789	51.057648
452.677124	1104.609863	19023.412109	10264.691406	51.119946
453.035248	1104.222778	18869.242188	10191.821289	51.154453
453.393311	1105.599243	18696.167969	10115.082031	51.217690
453.751312	1104.695923	18529.070313	10044.125977	51.304161
454.109314	1107.212402	18388.814453	9982.677734	51.357883
454.467285	1109.169800	18245.613281	9918.412109	51.406479
454.825195	1108.739502	18072.367188	9843.758789	51.492641
455.183044	1109.943848	17904.023438	9754.994141	51.476776
455.540894	1106.545654	17691.955078	9661.003906	51.578213
455.898651	1106.674683	17504.232422	9571.208984	51.620697
456.256378	1101.856934	17306.982422	9468.184570	51.627666
456.614105	1103.061401	17179.052734	9403.766602	51.634174
456.971771	1104.050781	17093.775391	9364.600586	51.661613
457.329407	1101.749512	17093.128906	9363.482422	51.663666
457.686981	1101.684814	17167.417969	9404.928711	51.682945
458.044525	1099.598633	17346.685547	9495.649414	51.677269
458.402008	1099.189941	17633.281250	9654.852539	51.745583
458.759460	1098.458618	18066.625000	9884.514648	51.779644
459.116913	1096.329468	18630.761719	10179.476563	51.801777
459.474274	1098.286621	19308.283203	10523.733398	51.759743
459.831635	1098.630859	19928.597656	10848.504883	51.778500
460.188904	1098.738403	20480.904297	11146.606445	51.840790
460.546173	1098.587769	20918.871094	11382.442383	51.885506
460.903381	1097.684448	21253.000000	11558.529297	51.901169
461.260559	1098.093262	21482.876953	11681.232422	51.916855
461.617706	1101.082764	21610.376953	11753.457031	51.939251
461.974762	1100.803101	21586.716797	11744.143555	51.954433
462.331848	1099.017822	21431.537109	11660.304688	51.942837
462.688843	1099.856812	21097.753906	11492.756836	51.969967
463.045837	1099.856812	20608.511719	11248.834961	52.022957
463.402740	1100.028931	20001.488281	10944.474609	52.082993
463.759613	1098.759888	19425.611328	10650.803711	52.120483
464.116486	1099.017944	18915.269531	10381.867188	52.103268
464.473267	1100.222290	18506.187500	10172.550781	52.121948
464.830048	1099.899658	18187.908203	10014.917969	52.171200
465.186737	1101.491333	17932.179688	9882.858398	52.174740
465.543457	1098.910522	17749.082031	9788.782227	52.190884
465.900085	1096.135864	17683.847656	9761.617188	52.240368
466.256683	1093.877563	17708.130859	9783.362305	52.301380
466.613251	1093.081665	17779.880859	9824.743164	52.326759
466.969757	1092.156738	17868.923828	9879.545898	52.378319
467.326233	1092.974121	17954.439453	9931.983398	52.421364
467.682678	1093.468750	18007.349609	9970.224609	52.482075
468.039093	1094.329102	18032.878906	9998.055664	52.564865
468.395416	1091.554688	18023.759766	9996.594727	52.592323
468.751740	1089.511353	18002.896484	9995.411133	52.655926
469.108032	1089.511353	17967.236328	9985.324219	52.707417
469.464233	1089.877075	17925.876953	9972.417969	52.759212
469.820435	1095.770264	17833.671875	9930.155273	52.780716
470.176575	1097.533936	17685.136719	9863.264648	52.845070
470.532715	1099.340576	17518.494141	9781.899414	52.880669
470.888763	1103.470093	17376.755859	9712.902344	52.905312
471.244751	1103.190430	17260.076172	9658.594727	52.952065
471.600769	1103.534668	17199.617188	9631.494141	52.981583
471.956696	1104.029297	17199.033203	9635.924805	53.009590
472.312592	1104.717651	17266.589844	9689.372070	53.116707
472.668457	1105.964966	17356.882813	9760.391602	53.255001
473.024292	1107.126465	17486.939453	9843.413086	53.335697
473.380035	1106.954468	17572.779297	9910.173828	53.463585
473.735779	1106.007935	17660.789063	9977.128906	53.586460
474.091492	1104.953979	17747.638672	10041.503906	53.696560
474.447113	1102.179565	17866.193359	10118.631836	53.784569
474.802765	1098.394165	17964.505859	10196.081055	53.940628
475.158295	1098.587769	18087.423828	10279.660156	54.041798
475.513824	1099.491089	18213.548828	10368.037109	54.157497
475.869324	1098.114624	18362.341797	10469.899414	54.284420
476.224762	1098.781372	18489.732422	10559.287109	54.399014
476.580170	1100.007202	18638.607422	10653.556641	54.471565
476.935516	1099.082397	18791.574219	10761.418945	54.612640
477.290863	1099.469604	19031.796875	10914.019531	54.731041
477.646118	1096.867065	19283.615234	11081.781250	54.902142
478.001373	1097.533936	19573.435547	11259.931641	55.003525
478.356537	1098.609253	19855.857422	11453.267578	55.203503
478.711700	1100.501953	20156.970703	11650.926758	55.364006
479.066833	1099.254395	20462.707031	11845.898438	55.499630
479.421875	1097.555298	20789.414063	12058.461914	55.662121
479.776917	1098.544678	21111.562500	12282.833984	55.885071
480.131897	1098.222046	21482.617188	12533.274414	56.097092
480.486847	1097.146606	21913.056641	12814.900391	56.292297
480.841766	1098.781372	22435.853516	13157.587891	56.515751
481.196594	1098.953491	23050.208984	13552.152344	56.731148
481.551453	1098.093262	23857.900391	14048.150391	56.898800
481.906219	1095.211060	24897.945313	14707.974609	57.189915
482.260986	1094.479736	26347.199219	15606.643555	57.467728
482.615662	1092.135254	28416.939453	16893.298828	57.827179
482.970306	1093.640991	31148.205078	18696.876953	58.570923
483.324951	1093.619385	34243.640625	20899.814453	59.747162
483.679504	1092.673096	37399.925781	23230.148438	60.972595
484.034027	1092.113892	40339.859375	25338.193359	61.777000
484.388519	1091.597656	42912.027344	27113.123047	62.222042
484.742981	1089.898560	45000.953125	28521.580078	62.471016
485.097351	1088.586426	46633.558594	29619.886719	62.644238
485.451721	1092.759033	47805.765625	30461.455078	62.870487
485.806030	1096.501465	48616.898438	31077.720703	63.091263
486.160309	1096.114258	49095.046875	31511.283203	63.366341
486.514557	1098.135986	49099.496094	31676.056641	63.702194
486.868744	1098.265137	48648.539063	31497.216797	63.930130
487.222931	1097.856567	47882.898438	30970.375000	63.850571
487.577026	1099.168579	46976.785156	30278.013672	63.601486
487.931122	1100.071777	46097.984375	29688.562500	63.532925
488.285126	1101.964478	45262.703125	29229.300781	63.693085
488.639099	1103.642090	44510.371094	28889.904297	64.013718
488.993042	1103.706543	43848.421875	28637.332031	64.414101
489.346954	1101.727905	43273.769531	28419.994141	64.778145
489.700836	1102.609741	42718.285156	28224.939453	65.173347
490.054626	1103.233521	42111.195313	27993.341797	65.572899
490.408417	1100.889160	41562.910156	27801.595703	65.989555
490.762146	1102.093628	41075.882813	27651.898438	66.418037
491.115814	1103.491577	40714.914063	27617.056641	66.934143
491.469513	1103.599121	40368.914063	27585.611328	67.443771
491.823090	1102.007324	39915.222656	27470.244141	67.936234
492.176666	1101.813965	39426.257813	27315.425781	68.399193
492.530182	1100.609375	38929.359375	27148.162109	68.856499
492.883698	1099.813721	38390.558594	26935.855469	69.282715
493.237091	1099.017944	37800.746094	26693.867188	69.737457
493.590515	1099.232910	37121.738281	26375.031250	70.166687
493.943878	1098.243652	36263.609375	25921.685547	70.590591
494.297150	1101.233276	35105.378906	25250.675781	71.019119
494.650452	1100.630981	33647.519531	24371.279297	71.498840
495.003662	1100.093262	31910.638672	23260.300781	71.924103
495.356873	1099.792114	30217.744141	22171.134766	72.365471
495.710022	1100.028687	28792.429688	21291.306641	72.912704
496.063110	1098.329590	27677.992188	20663.335938	73.608932
496.416168	1098.867188	26896.216797	20248.724609	74.231880
496.769165	1100.544922	26366.167969	20012.757813	74.853539
497.122162	1100.286865	26053.806641	19916.533203	75.405182
497.475098	1100.566528	25846.599609	19886.033203	75.913040
497.828003	1100.803223	25765.664063	19953.847656	76.436859
498.180847	1099.190063	25726.951172	20045.517578	76.930779
498.533661	1096.479980	25654.445313	20109.912109	77.422668
498.886444	1097.598267	25577.039063	20152.904297	77.842079
499.239136	1096.221802	25444.720703	20162.326172	78.305046
499.591827	1097.727417	25234.654297	20093.134766	78.698532
499.944427	1098.222168	24928.873047	19934.966797	79.044189
500.297089	1096.243286	24563.923828	19749.263672	79.483871
500.649628	1095.899292	24183.425781	19536.013672	79.870461
501.002136	1097.017700	23780.343750	19320.414063	80.338287
501.354584	1097.232788	23425.330078	19133.318359	80.777534
501.707001	1100.394409	23066.189453	18934.906250	81.192200
502.059387	1102.523804	22777.572266	18762.648438	81.476746
502.411682	1104.524048	22528.509766	18623.492188	81.772682
502.764038	1104.265747	22331.023438	18539.826172	82.139534
503.116302	1104.480957	22180.294922	18492.658203	82.502991
503.468475	1104.803589	22081.445313	18482.869141	82.844841
503.820709	1104.954102	22042.277344	18509.347656	83.126167
504.172852	1105.943481	22012.984375	18538.664063	83.382057
504.524902	1106.136963	22011.242188	18593.851563	83.652840
504.876953	1104.588379	22025.222656	18651.039063	83.871506
505.228912	1102.631226	22043.330078	18704.572266	84.056129
505.580872	1100.222290	22069.484375	18758.429688	84.209961
505.932770	1096.953125	22046.945313	18799.082031	84.497070
506.284698	1098.996460	22020.857422	18826.699219	84.732918
506.636505	1100.695557	22023.373047	18860.851563	84.884720
506.988342	1100.179443	22017.480469	18882.039063	85.010300
507.340088	1100.136353	22023.845703	18918.861328	85.160446
507.691772	1100.674072	22037.267578	18957.335938	85.289246
508.043396	1099.684692	22092.435547	19022.271484	85.375122
508.395050	1100.308472	22172.833984	19101.333984	85.424149
508.746582	1101.555786	22285.621094	19216.251953	85.510956
509.098114	1101.039551	22428.003906	19354.656250	85.589378
509.449646	1099.405151	22588.648438	19505.277344	85.651558
509.801086	1100.200806	22787.533203	19678.113281	85.662506
510.152557	1097.447754	22997.281250	19847.361328	85.616692
510.503906	1094.909790	23199.820313	20010.306641	85.571014
510.855194	1096.114136	23391.392578	20172.326172	85.561668
511.206482	1096.028076	23587.716797	20331.400391	85.522133
511.557709	1094.587158	23787.632813	20491.873047	85.476784
511.908844	1096.458496	23983.898438	20637.654297	85.379562
512.260010	1095.275513	24123.050781	20762.722656	85.407501
512.611206	1094.415161	24226.591797	20827.095703	85.304039
512.962219	1096.178711	24295.806641	20858.648438	85.184418
513.313232	1099.512573	24345.337891	20875.509766	85.073326
513.664246	1099.899780	24347.125000	20861.574219	85.006592
514.015137	1101.663330	24320.863281	20832.298828	84.975517
514.366028	1103.362549	24279.220703	20788.939453	84.940010
514.716919	1103.319458	24214.181641	20715.017578	84.859222
515.067688	1103.706665	24113.310547	20609.457031	84.772209
515.418396	1106.158569	24022.310547	20503.486328	84.644783
515.769104	1105.857422	23951.248047	20424.226563	84.561340
516.119812	1105.857544	23936.923828	20380.158203	84.421379
516.470459	1104.136719	24019.449219	20406.269531	84.232468
516.821106	1103.943237	24165.898438	20507.269531	84.135651
517.171631	1102.631348	24438.595703	20706.091797	84.005356
517.522095	1104.072266	24824.949219	20990.880859	83.836731
517.872559	1101.104126	25355.875000	21386.822266	83.635994
518.222961	1099.491089	25922.587891	21816.681641	83.459335
518.573364	1099.878296	26497.068359	22237.767578	83.229240
518.923645	1097.447876	27009.025391	22613.423828	83.036148
519.273987	1095.813232	27444.949219	22924.667969	82.844673
519.624207	1095.017334	27744.255859	23123.488281	82.660789
519.974487	1094.845215	27967.314453	23257.957031	82.475159
520.324646	1097.146606	28054.812500	23287.917969	82.317108
520.674744	1099.426392	28052.123047	23238.277344	82.139648
521.024780	1100.351196	27905.179688	23073.568359	81.974846
521.374878	1100.415771	27644.673828	22808.742188	81.781631
521.724792	1102.588013	27274.068359	22435.039063	81.510300
522.074707	1100.544800	26863.738281	22040.408203	81.278214
522.424744	1100.136230	26471.169922	21668.361328	81.069717
522.774536	1100.265381	26182.986328	21371.896484	80.819107
523.124329	1099.082520	25963.087891	21142.814453	80.613449
523.474182	1100.846191	25892.238281	21022.455078	80.356956
523.823914	1101.426880	25940.138672	21006.236328	80.136238
524.173523	1102.029175	26151.929688	21123.304688	79.925568
524.523132	1100.588013	26546.710938	21368.970703	79.652145
524.872803	1100.007324	27100.238281	21737.380859	79.373810
525.222290	1098.544678	27838.675781	22256.865234	79.125717
525.571777	1098.695190	28641.482422	22837.281250	78.926605
525.921326	1100.544800	29516.044922	23449.054688	78.649010
526.270752	1100.996582	30439.126953	24129.076172	78.491982
526.620178	1103.706543	31463.101563	24864.283203	78.264328
526.969482	1103.663574	32721.966797	25789.992188	78.076073
527.318787	1102.416138	34311.453125	26972.568359	77.900948
527.668030	1102.416138	36333.511719	28550.761719	77.909431
528.017212	1100.588013	38582.175781	30391.613281	78.147774
528.366394	1098.243652	40807.421875	32260.599609	78.476456
528.715515	1099.964233	42803.152344	33881.035156	78.605667
529.064636	1102.201050	44375.453125	35088.496094	78.538803
529.413635	1101.125732	45543.597656	35928.644531	78.365395
529.762695	1100.652466	46308.406250	36439.804688	78.170555
530.111633	1098.028442	46743.621094	36668.179688	77.926804
530.460510	1096.415405	46786.746094	36626.367188	77.762520
530.809387	1096.996216	46388.996094	36216.035156	77.539169
531.158142	1095.017456	45484.238281	35432.453125	77.355347
531.506958	1094.006470	44063.546875	34153.671875	76.937439
531.855652	1096.759521	42402.140625	32611.244141	76.296310
532.204407	1096.049683	40807.140625	31070.837891	75.482162
532.552979	1095.081909	39555.570313	29871.056641	74.819580
532.901611	1093.963379	38680.625000	29028.283203	74.319771
533.250183	1090.522217	38107.992188	28470.582031	73.965240
533.598755	1091.511597	37671.503906	28041.580078	73.674339
533.947205	1093.834473	37317.117188	27672.912109	73.375679
534.295593	1093.770020	37026.246094	27354.376953	73.083214
534.643982	1093.146362	36790.921875	27095.095703	72.839127
534.992249	1098.329590	36565.519531	26843.455078	72.588562
535.340576	1099.211426	36345.882813	26614.351563	72.390213
535.688843	1096.867065	36093.421875	26343.480469	72.140282
536.037048	1098.351074	35689.480469	25951.455078	71.848198
536.385315	1097.727417	35053.160156	25373.701172	71.493637
536.733398	1093.404297	34230.691406	24667.376953	71.140320
537.081421	1097.963989	33336.515625	23913.263672	70.770241
537.429443	1098.781372	32512.695313	23235.458984	70.467751
537.777466	1099.964233	31796.349609	22645.580078	70.189423
538.125427	1099.491089	31195.392578	22147.302734	69.935806
538.473267	1100.652466	30718.154297	21734.779297	69.668694
538.821167	1096.157349	30342.189453	21386.712891	69.378830
539.169006	1093.490356	30042.281250	21090.310547	69.076530
539.516846	1095.404541	29785.906250	20838.646484	68.814560
539.864502	1094.393677	29725.533203	20720.351563	68.547592
540.212219	1093.597778	29960.894531	20802.189453	68.273079
540.559875	1096.415527	30618.244141	21177.871094	68.022400
540.907410	1095.189453	31609.419922	21784.763672	67.803032
541.254944	1091.812866	32749.218750	22498.376953	67.619453
541.602478	1088.629517	33840.988281	23154.544922	67.371986
541.949951	1091.081543	34812.960938	23738.660156	67.159897
542.297363	1090.995483	35665.558594	24247.949219	66.976852
542.644714	1090.952393	36393.113281	24668.906250	66.788979
542.992126	1094.909912	36898.488281	24931.712891	66.576591
543.339355	1094.909912	37133.890625	25015.787109	66.375008
543.686646	1095.641113	36962.300781	24816.279297	66.135620
544.033813	1096.028320	36350.503906	24321.419922	65.879265
544.380920	1098.544800	35273.101563	23521.150391	65.611984
544.728027	1098.157593	33893.148438	22525.113281	65.336060
545.075134	1099.577026	32485.080078	21495.607422	64.985512
545.422180	1102.609741	31191.500000	20577.710938	64.725220
545.769165	1100.136230	30101.513672	19783.611328	64.422714
546.116150	1101.512695	29163.873047	19082.601563	64.075478
546.463013	1103.620605	28333.876953	18458.179688	63.732632
546.809875	1101.147095	27652.351563	17954.330078	63.474270
547.156677	1100.222290	27041.158203	17487.755859	63.172482
547.503418	1099.340576	26523.564453	17106.160156	62.958927
547.850098	1099.555664	26053.443359	16748.439453	62.711208
548.196777	1099.060913	25603.150391	16415.132813	62.504147
548.543396	1099.684448	25154.019531	16077.302734	62.265774
548.890015	1099.921143	24654.173828	15712.204102	62.036713
549.236633	1099.577026	24106.105469	15325.146484	61.832748
549.583069	1099.383545	23500.394531	14896.167969	61.590004
549.929504	1100.953613	22837.970703	14446.327148	61.394684
550.275879	1100.846191	22184.296875	14003.347656	61.197296
550.622253	1102.136597	21534.345703	13546.431641	60.905285
550.968567	1102.953979	20971.779297	13152.621094	60.646095
551.314819	1105.255249	20489.205078	12811.222656	60.390003
551.661072	1104.029297	20128.861328	12555.512695	60.192299
552.007263	1102.029175	19904.488281	12373.038086	59.944332
552.353394	1103.190430	19757.716797	12246.356445	59.734379
552.699524	1104.480957	19663.253906	12146.280273	59.496384
553.045593	1102.373169	19617.462891	12071.881836	59.246315
553.391602	1104.631470	19596.880859	12022.953125	59.042686
553.737549	1101.168579	19576.876953	11967.159180	58.812305
554.083435	1101.770996	19533.453125	11902.657227	58.599571
554.429321	1103.706543	19478.607422	11834.241211	58.397785
554.775146	1101.942993	19381.414063	11739.648438	58.194820
555.120972	1101.018188	19274.023438	11635.549805	57.968018
555.466675	1102.115112	19112.755859	11508.738281	57.780415
555.812439	1104.222900	18910.880859	11347.211914	57.523365
556.158081	1103.556274	18680.765625	11170.587891	57.273209
556.503662	1102.824829	18449.339844	11002.094727	57.067768
556.849182	1104.739136	18225.054688	10828.803711	56.798393
557.194702	1103.061401	18018.554688	10673.387695	56.577278
557.540161	1104.588501	17818.185547	10530.337891	56.395691
557.885620	1104.330322	17654.017578	10406.472656	56.207359
558.231018	1102.050537	17501.242188	10287.854492	56.013760
558.576355	1100.265381	17381.789063	10189.197266	55.823593
558.921692	1102.115112	17289.044922	10101.831055	55.598660
559.266968	1101.985962	17192.560547	10010.703125	55.366058
559.612183	1100.007324	17111.517578	9936.563477	55.188778
559.957336	1100.157837	17059.187500	9874.707031	54.981720
560.302429	1099.211426	17023.355469	9825.045898	54.796249
560.647522	1098.673706	17005.095703	9792.589844	54.656643
560.992554	1097.211182	16996.341797	9751.014648	54.429413
561.337524	1097.168213	17005.804688	9723.613281	54.224918
561.682434	1095.275513	17022.130859	9696.836914	54.006653
562.027344	1095.662720	17028.236328	9674.833984	53.846737
562.372253	1099.039307	17038.152344	9655.196289	53.680260
562.717102	1099.189941	17022.064453	9627.688477	53.561295
563.061829	1097.813354	17045.335938	9604.437500	53.341351
563.406494	1096.974609	17039.208984	9574.562500	53.176910
563.751160	1093.253784	17025.033203	9553.011719	53.099892
564.095825	1093.963501	17028.648438	9532.988281	52.960098
564.440369	1093.060059	17044.304688	9517.244141	52.812080
564.784973	1095.146362	17087.515625	9519.674805	52.678425
565.129456	1094.329224	17191.763672	9549.936523	52.527672
565.473877	1093.705444	17318.017578	9599.275391	52.424843
565.818298	1091.167480	17494.449219	9672.187500	52.312824
566.162659	1090.801880	17690.904297	9744.497070	52.130375
566.507019	1087.661621	17885.035156	9823.926758	52.009712
566.851196	1090.844849	18033.029297	9887.246094	51.920116
567.195435	1090.930786	18181.650391	9949.640625	51.833454
567.539612	1094.350586	18281.232422	9974.612305	51.668831
567.883789	1093.038574	18350.337891	9982.742188	51.512714
568.227844	1094.350708	18373.931641	9974.483398	51.390907
568.571960	1094.243042	18368.382813	9950.115234	51.266644
568.915955	1094.888306	18297.125000	9896.774414	51.167103
569.259888	1096.587402	18214.556641	9832.766602	51.035141
569.603821	1099.405151	18094.542969	9748.691406	50.892708
569.947632	1099.426514	17961.880859	9666.530273	50.805790
570.291504	1100.544922	17867.480469	9597.188477	50.674995
570.635193	1097.146606	17825.111328	9562.130859	50.603790
570.979004	1099.275879	17849.824219	9546.860352	50.431686
571.322632	1100.695435	17954.826172	9583.295898	50.329506
571.666321	1101.190186	18077.617188	9637.560547	50.283665
572.009949	1102.072021	18221.482422	9692.707031	50.180672
572.353455	1102.566772	18347.908203	9748.003906	50.132015
572.696960	1101.254761	18457.728516	9790.567383	50.063808
573.040405	1099.146973	18533.201172	9818.163086	50.011406
573.383850	1098.587769	18599.574219	9833.991211	49.913776
573.727173	1099.297607	18644.417969	9849.865234	49.874649
574.070557	1099.577148	18657.710938	9845.198242	49.809517
574.413879	1100.953735	18657.667969	9829.475586	49.716145
574.757019	1099.813721	18610.478516	9802.503906	49.699375
575.100281	1097.447876	18509.691406	9738.367188	49.625534
575.443420	1097.125122	18375.201172	9656.894531	49.541218
575.786499	1094.458130	18211.888672	9562.431641	49.469891
576.129517	1091.361084	18045.138672	9465.947266	49.396580
576.472534	1090.909302	17876.083984	9362.365234	49.278347
576.815491	1091.296509	17689.091797	9253.426758	49.175991
577.158447	1090.221191	17486.445313	9143.756836	49.118233
577.501343	1090.049072	17278.958984	9023.440430	49.005100
577.844116	1089.167236	17046.132813	8895.639648	48.922035
578.187012	1089.769531	16777.798828	8756.503906	48.869965
578.529724	1090.479370	16485.935547	8601.733398	48.788773
578.872375	1090.285645	16187.790039	8448.875000	48.740437
579.215027	1092.199951	15902.677734	8298.813477	48.658886
579.557617	1093.834473	15631.097656	8157.031738	48.586842
579.900146	1097.426270	15371.777344	8018.090332	48.483212
580.242676	1098.200684	15135.146484	7896.440430	48.431049
580.585144	1098.372681	14925.915039	7784.490723	48.353626
580.927612	1099.964355	14731.781250	7684.866699	48.305393
581.269958	1099.598633	14558.878906	7597.113770	48.275352
581.612305	1099.770752	14418.152344	7521.275391	48.215355
581.954590	1099.125488	14297.750000	7447.632324	48.099758
582.296814	1099.512573	14190.812500	7391.733887	48.064144
582.639038	1100.200806	14103.037109	7345.189453	48.027897
582.981140	1099.340576	14021.628906	7294.560547	47.942127
583.323242	1099.512573	13931.920898	7254.383301	47.963490
583.665283	1098.265015	13851.415039	7217.517578	47.982281
584.007324	1100.028687	13781.985352	7178.265625	47.928223
584.349304	1102.007446	13709.204102	7143.637695	47.922077
584.691284	1102.308472	13636.271484	7107.762695	47.913452
585.033142	1102.351685	13574.391602	7075.478516	47.892139
585.374939	1104.566895	13519.954102	7046.658203	47.860703
585.716736	1107.836060	13466.011719	7023.149902	47.865593
586.058411	1106.567139	13411.962891	6992.759277	47.834240
586.400085	1110.137451	13364.902344	6964.562500	47.772640
586.741760	1109.212769	13321.413086	6939.806641	47.744007
587.083374	1109.234253	13313.434570	6927.676270	47.675732
587.424988	1108.954590	13301.734375	6914.426270	47.614014
587.766541	1107.018799	13296.334961	6915.910645	47.655598
588.107971	1106.717773	13323.178711	6922.857910	47.609043
588.449341	1105.964966	13351.696289	6932.365234	47.579033
588.790710	1102.932373	13396.068359	6948.839355	47.554241
589.132080	1100.415894	13431.727539	6971.809570	47.613701
589.473267	1097.619873	13485.625977	6999.017090	47.637993
589.814514	1098.308105	13539.355469	7019.343262	47.592739
590.155762	1094.866943	13599.190430	7041.926270	47.560028
590.496948	1095.662720	13625.881836	7064.423828	47.634933
590.838013	1093.791504	13636.012695	7064.251465	47.602894
591.179077	1093.425903	13644.377930	7072.940918	47.641926
591.520081	1093.124756	13635.905273	7069.112305	47.644836
591.861023	1092.909668	13604.050781	7048.249512	47.600296
592.201965	1094.049683	13567.380859	7028.312012	47.575600
592.542847	1094.350708	13520.362305	7007.664063	47.588184
592.883606	1094.350586	13474.616211	6976.327637	47.510910
593.224365	1093.812988	13432.461914	6955.055176	47.503113
593.565125	1095.038940	13414.565430	6946.860840	47.500378
593.905823	1093.662354	13405.166016	6945.526855	47.531677
594.246521	1093.640991	13429.277344	6947.312500	47.453339
594.587097	1095.813232	13479.755859	6965.787598	47.399887
594.927612	1095.060425	13530.147461	6987.789551	47.387920
595.268127	1098.501831	13617.537109	7027.623535	47.360851
595.608582	1096.738159	13737.702148	7091.437500	47.422802
595.948975	1097.361816	13919.186523	7176.158203	47.409763
596.289307	1097.921021	14138.355469	7281.632813	47.419525
596.629700	1097.920898	14373.543945	7397.798340	47.454475
596.969971	1098.695190	14583.634766	7494.046875	47.425884
597.310242	1095.791748	14748.256836	7573.819824	47.449516
597.650391	1097.017700	14833.452148	7613.352051	47.438324
597.990540	1098.157715	14878.662109	7634.773438	47.433792
598.330627	1096.910278	14868.209961	7628.365234	47.428020
598.670654	1098.071655	14827.321289	7603.351563	47.382629
599.010620	1096.802612	14715.005859	7548.978516	47.379055
599.350525	1097.211182	14560.815430	7469.054199	47.326427
599.690491	1095.447510	14334.487305	7362.632813	47.338669
600.030334	1095.963745	14053.934570	7224.336426	47.294231
600.370178	1098.437134	13753.231445	7079.758301	47.265259
600.710022	1097.920898	13462.032227	6944.967285	47.290470
601.049683	1100.523438	13202.603516	6823.404785	47.288410
601.389343	1100.222290	13015.827148	6730.446777	47.250851
601.728943	1098.458618	12878.240234	6665.793945	47.261791
602.068542	1099.340454	12808.490234	6640.887207	47.326637
602.408081	1099.555542	12813.306641	6641.833008	47.314285
602.747498	1096.587402	12897.833984	6682.290527	47.331470
603.087036	1097.426270	13028.324219	6748.792480	47.367481
603.426453	1096.200317	13228.691406	6838.696777	47.331554
603.765869	1096.049683	13460.613281	6947.700195	47.325977
604.105103	1095.404419	13732.733398	7077.780762	47.338932
604.444336	1095.038940	14025.156250	7204.226074	47.247730
604.783569	1092.694580	14310.224609	7335.533203	47.231506
605.122681	1093.339722	14537.800781	7437.523438	47.188084
605.461792	1093.898926	14714.596680	7519.340332	47.174099
605.800842	1091.619141	14821.641602	7563.195313	47.134491
606.139954	1091.188965	14841.731445	7572.486328	47.134846
606.478943	1092.458008	14791.166016	7546.677734	47.115536
606.817932	1092.909668	14669.818359	7490.777832	47.123161
607.156799	1096.307861	14492.224609	7408.057617	47.116970
607.495605	1098.050049	14283.812500	7307.421875	47.091488
607.834412	1097.770386	14040.190430	7184.632324	47.030323
608.173157	1099.641602	13796.268555	7071.263672	47.033138
608.511841	1100.394409	13598.674805	6973.789063	46.993622
608.850464	1098.394165	13492.187500	6921.760742	46.986153
609.189148	1099.856567	13428.931641	6889.627930	46.960308
609.527710	1100.674072	13402.199219	6877.948730	46.963886
609.866211	1099.684692	13397.660156	6875.259766	46.963627
610.204712	1098.544800	13401.832031	6872.249512	46.928146
610.543091	1097.619873	13421.490234	6867.323730	46.817307
610.881409	1095.705566	13409.467773	6859.968262	46.811550
611.219788	1093.963623	13372.667969	6842.740234	46.819080
611.558044	1093.812988	13309.347656	6814.737305	46.833187
611.896301	1091.705078	13199.097656	6761.440430	46.828705
612.234436	1092.737671	13027.894531	6677.193359	46.789963
612.572693	1094.694824	12793.499023	6575.352051	46.848011
612.910767	1094.221558	12539.918945	6457.015137	46.854233
613.248840	1094.178589	12277.156250	6332.634277	46.843121
613.586792	1096.888550	12025.425781	6212.404785	46.808792
613.924805	1098.695190	11788.512695	6101.400391	46.798790
614.262695	1099.727661	11571.411133	6005.173828	46.844868
614.600525	1101.254761	11383.238281	5918.281250	46.849194
614.938293	1102.953979	11231.972656	5838.787598	46.755108
615.276123	1103.040039	11102.236328	5777.812500	46.751484
615.613892	1100.824707	10995.621094	5727.806641	46.761768
615.951538	1099.362183	10904.834961	5686.490234	46.781303
616.289185	1099.835205	10831.686523	5647.883301	46.733635
616.626770	1097.641479	10767.162109	5612.695801	46.693672
616.964294	1097.727417	10728.683594	5593.295410	46.678314
617.301819	1096.781128	10697.540039	5576.002930	46.654873
617.639221	1097.619873	10677.108398	5568.130859	46.667530
617.976624	1097.211060	10657.708008	5559.527344	46.674522
618.313965	1096.243286	10649.468750	5554.687988	46.669521
618.651306	1096.028198	10634.735352	5549.247070	46.685768
618.988525	1094.178589	10620.928711	5535.739746	46.621998
619.325684	1097.297363	10602.753906	5528.469727	46.617142
619.662964	1099.921387	10589.075195	5523.479980	46.616997
620.000000	1099.813721	10570.235352	5515.823242	46.629494
620.337097	1098.974854	10547.738281	5510.854980	46.692669
620.674133	1097.942505	10512.743164	5495.691895	46.711021
621.011047	1097.017578	10483.148438	5480.270020	46.699245
621.347961	1096.092773	10448.735352	5462.182129	46.682949
621.684875	1094.737793	10412.816406	5445.792969	46.694771
622.021729	1095.813232	10378.791016	5429.231934	46.681347
622.358521	1095.684204	10344.764648	5411.810547	46.665466
622.695313	1097.103638	10306.308594	5399.680176	46.720390
623.031982	1096.824097	10284.176758	5390.022949	46.729443
623.368652	1095.296997	10261.485352	5380.042969	46.745125
623.705261	1095.963745	10251.548828	5368.987793	46.671227
624.041748	1097.469238	10251.785156	5366.944824	46.638935
624.378296	1099.340454	10255.355469	5372.601074	46.671623
624.714722	1099.426636	10275.638672	5386.366699	46.717972
625.051147	1101.190186	10313.256836	5400.519043	46.670628
625.387512	1100.501953	10365.477539	5424.134766	46.666424
625.723877	1098.609253	10452.929688	5459.558594	46.619625
626.060120	1099.770630	10549.522461	5508.145020	46.650692
626.396301	1098.716797	10676.248047	5562.797363	46.609928
626.732483	1099.362183	10795.445313	5619.965332	46.622982
627.068604	1102.287109	10906.147461	5674.660156	46.638496
627.404724	1102.631348	11006.245117	5724.945801	46.673012
627.740662	1102.609863	11092.771484	5759.767578	46.617439
628.076721	1104.029175	11155.273438	5780.888672	46.530155
628.412720	1104.889526	11191.256836	5795.492676	46.504383
628.748596	1103.620605	11195.687500	5798.267578	46.518192
629.084473	1105.943481	11178.266602	5788.050781	46.484882
629.420227	1107.277100	11111.333984	5757.401855	46.482395
629.755981	1106.911377	11027.991211	5719.396484	46.491768
630.091675	1108.180298	10910.987305	5664.013672	46.474789
630.427307	1110.503174	10777.874023	5602.328613	46.463772
630.762939	1106.266113	10644.050781	5534.298828	46.426216
631.098450	1105.362671	10515.711914	5472.054199	46.403072
631.434021	1104.781982	10400.235352	5416.929688	46.389858
631.769470	1103.685059	10291.620117	5366.794434	46.398991
632.104980	1102.846313	10191.930664	5313.819824	46.330009
632.440308	1102.029053	10108.780273	5273.062012	46.310078
632.775635	1101.813965	10030.147461	5236.154297	46.305843
633.110901	1099.211426	9979.409180	5216.603516	46.365997
633.446106	1098.480103	9941.985352	5195.009277	46.322464
633.781250	1099.641602	9918.605469	5179.587891	46.263329
634.116394	1099.232910	9898.128906	5167.457520	46.235622
634.451538	1102.158081	9885.289063	5161.520996	46.217720
634.786560	1102.867798	9865.500977	5145.541016	46.135372
635.121582	1102.502075	9830.788086	5132.636230	46.173260
635.456543	1102.308594	9802.785156	5116.655762	46.139393
635.791443	1103.534424	9758.627930	5098.395020	46.156178
636.126221	1104.502441	9707.848633	5076.306641	46.165810
636.461060	1105.190674	9659.993164	5059.014160	46.217587
636.795776	1107.190918	9596.716797	5022.213867	46.115921
637.130493	1105.943481	9518.750000	4986.596191	46.127922
637.465210	1103.878784	9428.092773	4953.150879	46.241867
637.799805	1102.028931	9344.297852	4910.070801	46.201382
638.134399	1101.233276	9254.458984	4869.226563	46.214756
638.468933	1101.254761	9165.372070	4836.964355	46.325089
638.803345	1101.125610	9083.641602	4797.776855	46.309349
639.137756	1100.050293	9002.297852	4766.633301	46.399242
639.472168	1100.394409	8935.709961	4733.059082	46.362709
639.806519	1100.007324	8868.152344	4701.484863	46.362129
640.140747	1096.695190	8796.789063	4664.233398	46.331100
640.474976	1094.071167	8722.736328	4636.208984	46.431946
640.809204	1094.759277	8651.587891	4605.194336	46.453812
641.143372	1095.899292	8599.172852	4573.899902	46.353107
641.477478	1095.770264	8539.037109	4547.789063	46.377739
641.811462	1095.469116	8489.138672	4519.699707	46.313004
642.145447	1096.630615	8438.615234	4494.664063	46.282223
642.479370	1098.974976	8393.835938	4477.651367	46.315842
642.813293	1100.846069	8347.163086	4455.971191	46.301109
643.147095	1100.846191	8300.597656	4440.012207	46.378906
643.480957	1101.039673	8259.368164	4422.612305	46.401512
643.814758	1104.373413	8223.168945	4409.943848	46.434406
644.148438	1105.362793	8195.423828	4396.265137	46.415714
644.482117	1105.986450	8168.646973	4381.016113	46.371048
644.815735	1103.061401	8131.695801	4366.476563	46.430286
645.149292	1102.717163	8109.973145	4357.980957	46.455612
645.482788	1101.899902	8092.078125	4355.098633	46.539566
645.816223	1099.942749	8076.871582	4347.098145	46.541328
646.149658	1099.706177	8067.816895	4347.614258	46.611031
646.483032	1100.502075	8075.860840	4349.184082	46.573692
646.816345	1100.093384	8077.473633	4350.280762	46.581772
647.149658	1098.200684	8077.538574	4352.668457	46.630035
647.482849	1096.200317	8084.291992	4351.958496	46.590092
647.816101	1096.824097	8078.957520	4353.485352	46.642780
648.149231	1098.308105	8086.378418	4358.970215	46.660408
648.482239	1100.523560	8096.530762	4364.282715	46.651741
648.815247	1100.953613	8095.196777	4365.767090	46.678581
649.148254	1099.426636	8089.260742	4362.239258	46.679398
649.481201	1100.222412	8077.538574	4362.927734	46.761608
649.814087	1101.082764	8073.194824	4355.120605	46.672195
650.146973	1098.630859	8060.848633	4347.786133	46.668396
650.479736	1098.931885	8054.697266	4348.539063	46.718182
650.812500	1101.921509	8054.976563	4349.442383	46.706390
651.145203	1101.104248	8043.039551	4348.539063	46.779961
651.477844	1100.803101	8051.212402	4346.237793	46.694153
651.810486	1097.705933	8047.298340	4347.312988	46.759678
652.143005	1096.716675	8036.156250	4346.022461	46.823750
652.475525	1096.716675	8036.543457	4344.624512	46.800991
652.807922	1097.426392	8025.961426	4341.162109	46.817051
653.140381	1097.168213	8024.478027	4337.742188	46.779690
653.472717	1095.383057	7998.733887	4335.032227	46.928650
653.805115	1095.727173	7972.062988	4325.740234	46.972881
654.137390	1093.770020	7941.564453	4311.265625	46.985867
654.469543	1093.296753	7907.625000	4294.811523	46.982101
654.801758	1095.619629	7876.094238	4281.218262	46.981941
655.133850	1096.867065	7834.734375	4270.249512	47.097729
655.465881	1097.490723	7790.793457	4252.849609	47.142033
655.797974	1099.082397	7760.961426	4238.482422	47.124844
656.129944	1099.921143	7724.742188	4228.115723	47.219307
656.461853	1098.114502	7702.911133	4220.007324	47.267052
656.793762	1096.974487	7684.500000	4215.469238	47.339394
657.125610	1097.189575	7687.489258	4214.845215	47.306736
657.457397	1096.845581	7706.740234	4225.491699	47.332767
657.789124	1098.265137	7744.443359	4241.901855	47.299915
658.120789	1096.652100	7805.526367	4272.228516	47.333969
658.452393	1095.963867	7895.795410	4318.427734	47.390350
658.783997	1096.393921	8007.443848	4365.293457	47.299606
659.115540	1099.706177	8137.502930	4423.988770	47.234707
659.447083	1099.082520	8251.990234	4478.038574	47.238914
659.778503	1097.383301	8362.735352	4529.206543	47.235470
660.109924	1099.276001	8457.262695	4575.792480	47.248203
660.441284	1099.770630	8524.668945	4609.689453	47.272282
660.772522	1100.394287	8568.072266	4630.982422	47.278259
661.103760	1101.082520	8577.277344	4636.079590	47.283371
661.434998	1102.028809	8569.641602	4638.337891	47.355282
661.766113	1104.007690	8515.679688	4611.237793	47.320362
662.097229	1104.029419	8421.323242	4566.285645	47.316074
662.428345	1104.717651	8297.867188	4509.418457	47.332546
662.759277	1102.179565	8148.234863	4443.346191	47.418964
663.090332	1102.609741	8003.937988	4379.768555	47.485912
663.421204	1101.942993	7856.973145	4309.931641	47.490368
663.752075	1102.846313	7713.859375	4242.073730	47.484818
664.082886	1102.867798	7589.284668	4182.969727	47.485416
664.413635	1100.889160	7478.367676	4130.511719	47.505020
664.744324	1099.233032	7379.688965	4088.205566	47.591648
665.075012	1097.899536	7287.720215	4042.995361	47.579659
665.405640	1097.963989	7214.679199	4011.486572	47.632141
665.736206	1098.394165	7161.597168	3984.106934	47.593868
666.066772	1095.727051	7110.623047	3968.168945	47.755470
666.397278	1096.867065	7076.941895	3949.585938	47.703732
666.727661	1095.555054	7038.851074	3936.230225	47.796295
667.058044	1097.469238	7009.146973	3927.970947	47.879837
667.388306	1097.512329	6988.822266	3920.077148	47.910648
667.718567	1098.673828	6970.820313	3912.011719	47.909874
668.048828	1099.899780	6964.669922	3908.957275	47.897148
668.378967	1102.889404	6962.884277	3906.720947	47.846996
668.709167	1103.921875	6958.732910	3905.000000	47.842331
669.039246	1101.878540	6962.690918	3906.161621	47.848026
669.369263	1102.416260	6956.776367	3903.580566	47.847488
669.699341	1104.846558	6948.473633	3900.247070	47.836735
670.029236	1105.083130	6938.924805	3895.428955	47.830330
670.359131	1107.147827	6934.085449	3890.718750	47.770733
670.688965	1106.502686	6921.546875	3882.502930	47.738251
671.018738	1105.384277	6902.124512	3872.307861	47.732407
671.348511	1103.878662	6880.379883	3864.909180	47.797630
671.678223	1104.308716	6849.687500	3852.369629	47.830807
672.007813	1102.867676	6814.112793	3840.303711	47.930634
672.337341	1100.157715	6783.227051	3826.388184	47.971092
672.666992	1102.201050	6750.986328	3808.084473	47.902039
672.996460	1102.115112	6716.401855	3796.234131	47.986847
673.325867	1100.673950	6688.054199	3779.694580	47.947701
673.655273	1097.275635	6651.426270	3763.391357	48.002224
673.984619	1095.382935	6617.271484	3744.055420	47.966782
674.314026	1096.415283	6586.729492	3729.516357	47.959023
674.643250	1098.243652	6561.845215	3717.450195	47.939194
674.972412	1098.802856	6540.853516	3703.577393	47.863838
675.301514	1098.243652	6515.022949	3692.264160	47.888615
675.630676	1097.404663	6495.687012	3678.842773	47.819618
675.959778	1100.243774	6470.328125	3666.519287	47.788361
676.288757	1099.189941	6442.131348	3657.421143	47.880577
676.617737	1098.265137	6422.817383	3645.570068	47.840736
676.946594	1098.566284	6406.148438	3634.579102	47.780941
677.275513	1100.673950	6395.158203	3636.708496	47.899559
677.604309	1101.899902	6392.383301	3638.988525	47.955704
677.933044	1100.781494	6398.320313	3637.354004	47.882092
678.261780	1100.803101	6410.879883	3643.590820	47.886082
678.590393	1099.340576	6432.216797	3653.118896	47.887451
678.919067	1101.254761	6468.823242	3662.367432	47.714581
679.247620	1100.523315	6513.860840	3679.036621	47.632595
679.576111	1099.125366	6559.737305	3705.856934	47.736984
679.904541	1098.179077	6620.088867	3734.699463	47.746536
680.232971	1098.006958	6676.332520	3762.380371	47.762962
680.561401	1097.490845	6732.962891	3793.824951	47.845753
680.889709	1097.082153	6787.829590	3807.289063	47.624798
681.217957	1096.350830	6834.244141	3821.591553	47.495491
681.546143	1094.006470	6873.323730	3840.712402	47.526478
681.874390	1095.318481	6900.359375	3853.982910	47.521877
682.202454	1096.393799	6914.985840	3861.941162	47.529495
682.530579	1096.157227	6905.263672	3859.962402	47.577114
682.858521	1099.017700	6874.012695	3848.132813	47.603767
683.186523	1099.426514	6833.169922	3823.053955	47.501736
683.514465	1099.641602	6772.193848	3792.770996	47.476501
683.842346	1100.157715	6708.701660	3759.541260	47.416649
684.170166	1101.727905	6635.251465	3721.686768	47.347031
684.497925	1100.673950	6558.102051	3691.360352	47.470829
684.825623	1100.609375	6474.780762	3657.592773	47.579121
685.153320	1103.814087	6395.049805	3618.104004	47.518013
685.481018	1100.932007	6318.846680	3577.497070	47.462734
685.808533	1097.920898	6247.827637	3543.041260	47.478924
686.136047	1096.910034	6188.508301	3515.833496	47.508137
686.463623	1094.716309	6143.836426	3493.379150	47.506550
686.791016	1093.898926	6115.273438	3473.118652	47.381844
687.118408	1093.038696	6102.132324	3465.677246	47.366627
687.445740	1093.705566	6096.776855	3463.461670	47.366028
687.772949	1094.221558	6093.271484	3460.041504	47.325390
688.100220	1095.705688	6093.701660	3459.955566	47.303959
688.427429	1093.985107	6090.109375	3458.729492	47.331577
688.754517	1094.995972	6091.464355	3457.804688	47.289574
689.081604	1098.157593	6083.226563	3458.492920	47.348103
689.408630	1102.158203	6065.138672	3447.480713	47.256332
689.735657	1102.394653	6042.167480	3438.813232	47.298096
690.062622	1104.502441	6012.873535	3423.800537	47.251888
690.389465	1104.244385	5970.202637	3410.422119	47.394115
690.716248	1105.685425	5911.765137	3382.010254	47.363441
691.043091	1103.599121	5852.058105	3352.393799	47.358410
691.369812	1101.125732	5789.728027	3326.197021	47.457024
691.696533	1100.910645	5724.429688	3291.569336	47.380764
692.023132	1104.050781	5671.025391	3263.974365	47.294407
692.349670	1102.287109	5605.705078	3237.347412	47.409775
692.676270	1101.039673	5552.150391	3210.375977	47.388988
693.002747	1098.523315	5502.918457	3190.029785	47.486801
693.329163	1099.146973	5454.503906	3162.714600	47.379990
693.655518	1098.566284	5414.843262	3141.808594	47.338074
693.981873	1098.286743	5380.150879	3122.903076	47.283524
694.308167	1097.318726	5352.255371	3109.460205	47.289577
694.634399	1099.340576	5318.573730	3091.866943	47.224842
694.960571	1100.588013	5295.774902	3075.671631	47.079750
695.286743	1100.222412	5279.320801	3068.638428	47.101448
695.612854	1098.652222	5266.910645	3058.486572	47.018063
695.938904	1098.630737	5266.072266	3055.776611	46.962769
696.264832	1098.845825	5277.858887	3055.217285	46.814198
696.590820	1100.846191	5295.279785	3061.884521	46.753353
696.916687	1100.394409	5332.553223	3078.574951	46.741642
697.242554	1100.114868	5381.053711	3102.491943	46.774250
697.568359	1099.856689	5452.417480	3133.033447	46.712200
697.894043	1100.738525	5550.967285	3175.210693	46.614960
698.219788	1099.534058	5673.821777	3233.432861	46.649864
698.545349	1101.792358	5811.623535	3296.860107	46.606087
698.870972	1102.136597	5945.833984	3350.716309	46.422794
699.196533	1102.846313	6066.235840	3405.389648	46.390545
699.521973	1101.211670	6169.517578	3447.050781	46.284485
699.847412	1101.125488	6241.720215	3482.496338	46.324814
700.172852	1103.534424	6290.349609	3502.154541	46.244564
700.498169	1104.201172	6309.813965	3510.413330	46.223419
700.823486	1103.749512	6299.876953	3500.519775	46.126087
701.148682	1104.244263	6248.881348	3476.710693	46.115326
701.473816	1103.663574	6161.343750	3436.038818	46.115513
701.799072	1104.351685	6041.027832	3376.676514	46.029446
702.124146	1100.867554	5895.203125	3305.161865	45.977058
702.449158	1100.544922	5739.484863	3237.239746	46.059978
702.774109	1103.018433	5585.810059	3166.284912	46.026379
703.099060	1102.674316	5439.813965	3101.610107	46.088802
703.424011	1102.502197	5303.388672	3038.978760	46.096851
703.748840	1100.630981	5186.169434	2980.992920	46.024822
704.073608	1099.426514	5079.683105	2930.879150	46.013432
704.398315	1100.846069	4983.585449	2889.820557	46.075062
704.723022	1103.513062	4910.414551	2851.729736	45.922298
705.047668	1101.942993	4846.686523	2820.048584	45.880459
705.372253	1101.770996	4791.173828	2792.518066	45.827122
705.696716	1102.953857	4744.007324	2770.429443	45.796516
706.021240	1102.674316	4704.539551	2751.244141	45.769894
706.345764	1097.641357	4671.353027	2735.263672	45.824131
706.670044	1099.942749	4651.285645	2725.004150	45.759068
706.994446	1097.189697	4638.187500	2714.035156	45.660732
707.318665	1095.318604	4627.347168	2708.787354	45.681080
707.642883	1094.587158	4623.282227	2704.163086	45.613914
707.967102	1093.038574	4619.604980	2701.044434	45.596924
708.291260	1092.113770	4615.281250	2701.861572	45.690357
708.615295	1095.447510	4613.969727	2705.561035	45.761074
708.939331	1096.630493	4619.562012	2707.991211	45.739201
709.263367	1096.415527	4626.874512	2716.164307	45.879269
709.587280	1097.641479	4638.832520	2721.476807	45.855629
709.911194	1098.888794	4662.556152	2730.875977	45.795158
710.234985	1098.071533	4684.344238	2737.177734	45.705006
710.558716	1101.104248	4710.605469	2752.211914	45.743374
710.882568	1104.373413	4740.694824	2766.321289	45.704098
711.206177	1105.212158	4770.397949	2778.322510	45.648720
711.529785	1105.319702	4803.110840	2792.776123	45.634174
711.853394	1104.459351	4831.093262	2803.035400	45.579365
712.176880	1103.857178	4846.105469	2808.068604	45.539776
712.500427	1102.394653	4857.935059	2814.155273	45.579609
712.823792	1100.458984	4866.709961	2813.122803	45.473969
713.147217	1100.351440	4868.839355	2814.585449	45.488644
713.470520	1099.878052	4855.547363	2807.100586	45.457211
713.793823	1100.437378	4835.544922	2795.701416	45.387291
714.117004	1100.523438	4811.112305	2782.624512	45.332455
714.440247	1098.200684	4783.754395	2768.364746	45.316502
714.763367	1098.415771	4748.201172	2755.438477	45.400551
715.086365	1097.232788	4712.841797	2738.791260	45.401993
715.409485	1096.781128	4687.011230	2723.412842	45.307175
715.732361	1097.275879	4667.696777	2711.884521	45.221802
716.055298	1097.405029	4649.586426	2703.948242	45.226948
716.378174	1100.308472	4628.573242	2692.979004	45.140335
716.700928	1100.760132	4606.527832	2679.665527	45.037365
717.023804	1101.340820	4585.686035	2672.051758	45.079086
717.346558	1101.728027	4558.823242	2663.857178	45.186176
717.669189	1098.609253	4527.421387	2650.349854	45.255924
717.991760	1097.469238	4488.470215	2632.025146	45.253773
718.314392	1096.587402	4450.594238	2613.743164	45.234127
718.636902	1099.577026	4408.395508	2592.191895	45.110210
718.959351	1100.157715	4350.775391	2571.264648	45.256229
719.281738	1098.566284	4297.457031	2546.853271	45.274666
719.604065	1098.781250	4234.267090	2518.914307	45.292282
719.926453	1097.727417	4175.249023	2496.029785	45.435989
720.248718	1095.963745	4124.210449	2475.016357	45.539642
720.570923	1096.028198	4073.709229	2453.938477	45.602943
720.893066	1093.705322	4031.316406	2433.548584	45.609962
721.215088	1096.178833	3985.740723	2414.535645	45.624798
721.537170	1098.501709	3947.241943	2400.340088	45.698738
721.859192	1100.587891	3913.947754	2385.435303	45.669502
722.181152	1099.103882	3881.728271	2373.993164	45.816074
722.503052	1100.480469	3859.360107	2360.378174	45.667004
722.824951	1102.652832	3835.615479	2351.796631	45.706581
723.146790	1103.190552	3823.097412	2344.914063	45.653164
723.468506	1104.330444	3809.010010	2336.482910	45.556316
723.790161	1104.480957	3791.265625	2332.353516	45.700447
724.111816	1107.599609	3779.392822	2324.675537	45.552773
724.433472	1109.083618	3764.789063	2322.245117	45.681324
724.755005	1108.933105	3761.132813	2321.599854	45.723057
725.076477	1107.642578	3755.927979	2320.201660	45.786572
725.397888	1106.309082	3752.292969	2318.523926	45.813389
725.719299	1106.760864	3754.831055	2316.738770	45.692818
726.040710	1105.642456	3757.368652	2322.588867	45.892612
726.361938	1102.781738	3763.111572	2324.223145	45.913158
726.683167	1101.319336	3769.628174	2326.696777	45.923374
727.004395	1098.523315	3782.791260	2334.891602	46.059792
727.325500	1098.888916	3802.943848	2345.000244	46.083061
727.646667	1097.361816	3818.666504	2355.947998	46.249367
727.967651	1096.738037	3837.765625	2363.303467	46.207687
728.288635	1095.533569	3854.434570	2371.583984	46.252129
728.609558	1096.609009	3870.242920	2379.735596	46.261570
728.930481	1097.748901	3888.051514	2388.898193	46.272732
729.251282	1097.533813	3895.902100	2398.748779	46.499062
729.572021	1097.856567	3901.946045	2402.749023	46.535339
729.892761	1101.147217	3904.398193	2406.986084	46.583015
730.213440	1103.082886	3907.000244	2409.050781	46.576546
730.534119	1103.125854	3909.043701	2410.642578	46.598537
730.854675	1105.298340	3910.914795	2412.212891	46.582081
731.175171	1103.986328	3916.764893	2413.825928	46.567463
731.495605	1106.180176	3921.561035	2419.504150	46.648182
731.816101	1105.470215	3924.852295	2423.289307	46.741417
732.136475	1105.083130	3927.583008	2425.762939	46.791138
732.456787	1101.405273	3927.024170	2427.892090	46.945000
732.777039	1100.803101	3935.347900	2433.376709	47.011906
733.097229	1101.018066	3941.176758	2437.140625	47.043941
733.417480	1098.867310	3944.983398	2437.700195	47.040695
733.737549	1097.125122	3943.112305	2441.313477	47.231003
734.057617	1098.179077	3932.616455	2434.366211	47.141174
734.377563	1095.189331	3911.086670	2425.203857	47.232349
734.697510	1096.071289	3878.867432	2416.643555	47.454868
735.017517	1093.770020	3843.358398	2402.555908	47.599339
735.337341	1093.189331	3805.761963	2385.026611	47.624062
735.657166	1093.683960	3767.800537	2367.045898	47.618038
735.976868	1096.243286	3729.903076	2352.097900	47.684772
736.296631	1096.479980	3685.919434	2332.396484	47.729115
736.616272	1096.609009	3646.989746	2313.082275	47.697708
736.935852	1094.200195	3613.695068	2298.349365	47.793278
737.255371	1092.995728	3579.648193	2285.208008	47.944469
737.574829	1092.716187	3553.386719	2280.218018	48.259281
737.894348	1093.167847	3539.879150	2274.324951	48.275291
738.213745	1090.952515	3535.707031	2267.055176	48.107189
738.533081	1090.780396	3536.954102	2267.076660	48.087189
738.852356	1092.436523	3542.008545	2270.474854	48.091599
739.171570	1091.425659	3550.095947	2278.303711	48.273167
739.490784	1090.414673	3554.031982	2277.679932	48.191956
739.809937	1089.769409	3559.795898	2281.895508	48.263699
740.129028	1086.263550	3556.870850	2285.552002	48.542252
740.447998	1089.360840	3549.062744	2287.853516	48.725121
740.767029	1089.791016	3542.073242	2285.036133	48.740112
741.085999	1090.866333	3529.534180	2281.551758	48.825237
741.404846	1093.941895	3505.854004	2271.786865	48.834488
741.723633	1096.566040	3479.054688	2265.614258	49.068363
742.042358	1097.619995	3447.330566	2250.171143	49.050774
742.361145	1098.308105	3413.713379	2233.158447	49.013031
742.679810	1098.630737	3378.698242	2218.231689	49.103855
742.998413	1098.071411	3342.435303	2206.767822	49.399139
743.316956	1096.544434	3307.721191	2192.831055	49.579330
743.635498	1100.953491	3277.159180	2180.377930	49.601215
743.953979	1099.835205	3247.563477	2167.602051	49.716106
744.272400	1103.276489	3222.377930	2155.557617	49.656948
744.590698	1101.018066	3197.170166	2147.922119	49.944088
744.909058	1098.652222	3172.715576	2142.652588	50.335991
745.227356	1099.361938	3152.347656	2132.737549	50.335251
745.545471	1099.835083	3136.452881	2128.543213	50.510612
745.863586	1101.706299	3118.794678	2126.392334	50.800255
746.181702	1101.835449	3099.072021	2121.294922	51.043503
746.499756	1105.083130	3085.199463	2118.477539	51.178528
746.817810	1108.782593	3073.305420	2116.778320	51.309952
747.135742	1106.696411	3063.347412	2118.176270	51.694443
747.453613	1107.449097	3057.948975	2121.789795	52.004139
747.771423	1105.448730	3051.646729	2126.843994	52.481571
748.089233	1108.997559	3048.893799	2130.328369	52.648735
748.406982	1110.008545	3053.905273	2137.834473	52.874512
748.724609	1109.685913	3058.378906	2148.588379	53.312782
749.042236	1107.018799	3059.346924	2160.073975	53.938431
749.359863	1104.480957	3064.616455	2170.698975	54.395119
749.677429	1103.362427	3072.724854	2180.141113	54.676514
749.994873	1101.577393	3079.026611	2190.787354	55.081566
750.312256	1100.243896	3083.586182	2198.401367	55.369034
750.629639	1103.491699	3088.361084	2206.832520	55.587578
750.946960	1104.222900	3091.178711	2216.102539	55.958950
751.264282	1104.782104	3090.511719	2224.770508	56.401859
751.581482	1103.943237	3088.726563	2231.502441	56.810192
751.898621	1101.728027	3083.779785	2238.062256	57.331207
752.215698	1100.243774	3078.725586	2245.052490	57.862988
752.532715	1102.738770	3077.456787	2250.106934	58.102886
752.849792	1101.534424	3074.101318	2258.731445	58.664528
753.166748	1101.620483	3069.283447	2268.990967	59.327766
753.483643	1101.469849	3068.767090	2278.798340	59.844971
753.800476	1100.501953	3066.680664	2289.229736	60.458786
754.117310	1095.877808	3065.132568	2299.209473	61.105942
754.434082	1092.780518	3060.593994	2305.877197	61.646935
754.750732	1091.791138	3060.551025	2313.727539	62.066299
755.067383	1092.264404	3061.110352	2323.062256	62.513668
755.383911	1093.511963	3057.410889	2332.805420	63.103729
755.700562	1093.425903	3055.905273	2341.494385	63.596516
756.016968	1093.382935	3049.216309	2349.732178	64.236008
756.333435	1095.490601	3043.925537	2354.291748	64.605759
756.649780	1097.447754	3042.161621	2364.292969	65.143013
756.966064	1096.996094	3042.914795	2373.498291	65.598946
757.282410	1097.017578	3046.441650	2388.081055	66.227943
757.598633	1096.630493	3049.990723	2404.599365	66.959938
757.914795	1100.329956	3059.734131	2422.515381	67.478951
758.230896	1099.577148	3072.273438	2443.872803	68.145088
758.546936	1096.673706	3082.403320	2465.273438	68.921753
758.862976	1095.146606	3093.996094	2485.813477	69.573364
759.178894	1094.221558	3103.352295	2505.880615	70.262177
759.494812	1095.296997	3115.203125	2526.097900	70.835022
759.810669	1094.931274	3124.688232	2551.670898	71.769165
760.126526	1094.027832	3134.172852	2569.587402	72.326210
760.442261	1093.662354	3138.109131	2588.471191	73.115562
760.757935	1092.414917	3141.571777	2604.042969	73.768295
761.073608	1095.877808	3145.593750	2615.807861	74.153206
761.389160	1094.006592	3143.851563	2631.100342	74.985855
761.704712	1095.576538	3141.012451	2644.026611	75.702690
762.020203	1098.351074	3145.658447	2659.921143	76.274338
762.335571	1100.458862	3166.349365	2684.440186	76.673050
762.650940	1102.394653	3207.171631	2730.833008	77.368690
762.966370	1100.329956	3283.697021	2807.637939	78.196098
763.281677	1100.867676	3390.075928	2907.736328	78.929848
763.596863	1098.243652	3507.316162	3013.147461	79.487183
763.911987	1100.415894	3602.295898	3106.707275	80.191353
764.227112	1102.867798	3678.735352	3181.103760	80.681000
764.542236	1103.319458	3740.076416	3243.799805	81.178528
764.857178	1103.685059	3780.877441	3286.600586	81.537491
765.172119	1102.609863	3804.622070	3319.765869	82.055733
765.487061	1099.082397	3818.322754	3339.403076	82.387749
765.801880	1095.899292	3806.385742	3347.489990	83.069626
766.116760	1094.608643	3769.692871	3328.154541	83.494415
766.431458	1094.243042	3686.671875	3271.975586	84.003563
766.746155	1093.124634	3573.044678	3182.996338	84.271736
767.060791	1095.296997	3442.340576	3086.920166	84.856682
767.375427	1094.716309	3328.520264	2999.640381	85.277138
767.689941	1093.232300	3229.862549	2926.512939	85.802422
768.004395	1090.027466	3144.906006	2864.763428	86.366959
768.318848	1087.769165	3074.574463	2816.735840	87.022453
768.633179	1088.134888	3014.631836	2774.881104	87.555092
768.947632	1090.457764	2957.291260	2740.447021	88.384384
769.261841	1091.188965	2908.618408	2702.571289	88.662720
769.576111	1091.877197	2861.257813	2670.051025	89.193573
769.890259	1093.038818	2827.167725	2643.037354	89.381966
770.204285	1094.501221	2789.485596	2619.055908	89.945061
770.518433	1092.630127	2756.814697	2596.687500	90.378036
770.832458	1091.081543	2725.714111	2579.244385	91.039597
771.146362	1090.844849	2697.301758	2565.328613	91.784828
771.460205	1091.619263	2670.524170	2550.531006	92.400230
771.774109	1093.490356	2651.468262	2535.905762	92.582535
772.087952	1094.608765	2632.154053	2520.936279	92.766541
772.401672	1094.888550	2615.657227	2507.902344	92.914444
772.715332	1098.071411	2602.666504	2500.847656	93.232811
773.028992	1098.630737	2589.718506	2489.770752	93.296989
773.342590	1098.049927	2572.082031	2480.651367	93.797241
773.656128	1097.103638	2557.994385	2472.779541	94.166924
773.969604	1099.555664	2543.970947	2467.424072	94.700493
774.283020	1100.200928	2532.851563	2455.745117	94.617920
774.596375	1099.577148	2521.043701	2444.862061	94.640633
774.909729	1100.695557	2507.816162	2437.936523	95.033859
775.223022	1101.900024	2492.523926	2428.085693	95.366234
775.536194	1105.836060	2481.941895	2421.353760	95.597130
775.849304	1105.857544	2466.456055	2415.568359	96.259903
776.162476	1104.674561	2453.142822	2407.889893	96.644127
776.475525	1104.739014	2438.840088	2404.706787	97.441475
776.788513	1105.427246	2430.839111	2400.060791	97.677826
777.101440	1103.857178	2424.859863	2396.124756	97.824753
777.414307	1102.502075	2417.826660	2391.952393	98.032860
777.727173	1100.566406	2414.213379	2389.693848	98.133476
778.039978	1102.781738	2408.384521	2383.800781	98.117058
778.352722	1101.211792	2403.846191	2377.283691	97.960861
778.665405	1098.566284	2402.491455	2376.552490	98.010704
778.977966	1092.823608	2397.759521	2372.358398	98.053459
779.290649	1092.436401	2399.566162	2369.648438	97.711189
779.603149	1092.156860	2396.124756	2367.992432	97.842560
779.915588	1090.328613	2397.006836	2365.561768	97.593513
780.227966	1090.199585	2391.801514	2366.185547	98.031967
780.540405	1090.048950	2385.219971	2364.529297	98.402473
780.852722	1088.307007	2382.596191	2359.367432	98.205292
781.164917	1089.554321	2373.412354	2355.969238	98.641350
781.477173	1089.876953	2365.260742	2355.109131	99.204033
781.789246	1090.737305	2355.926270	2349.990234	99.530815
782.101379	1091.360962	2343.107666	2344.978760	100.149475
782.413452	1092.500977	2335.429199	2340.827637	100.434334
782.725403	1091.683716	2324.244873	2331.385742	100.579353
783.037292	1092.586914	2315.189941	2325.771973	100.865532
783.349182	1094.264648	2301.854980	2319.964600	101.499649
783.661072	1094.049561	2294.843262	2311.662354	101.400665
783.972839	1094.845337	2286.003662	2303.210205	101.444519
784.284546	1096.609009	2271.679443	2296.263184	102.092110
784.596191	1097.211182	2261.699463	2288.649170	102.314293
784.907898	1095.383057	2254.236084	2280.454834	102.262474
785.219421	1096.652100	2247.138428	2275.679932	102.480820
785.530884	1095.189453	2243.331787	2269.442383	102.274162
785.842346	1094.737793	2236.341553	2263.355713	102.366333
786.153748	1096.479858	2227.588135	2258.279785	102.713417
786.465149	1096.845581	2220.232178	2256.000000	103.183929
786.776428	1098.093018	2214.403320	2252.429688	103.406433
787.087646	1100.114746	2210.489014	2251.676758	103.709358
787.398804	1100.028809	2215.650879	2257.892578	103.786377
787.709961	1101.448242	2228.491211	2271.636475	103.828186
788.021057	1103.448486	2243.998535	2289.875244	104.022331
788.332031	1105.255127	2260.581299	2307.124756	104.028603
788.643005	1103.792725	2278.411377	2321.965088	103.707901
788.953918	1105.513306	2290.907715	2335.730469	103.781250
789.264832	1108.137329	2298.671875	2348.484619	104.184067
789.575623	1107.040527	2307.898926	2363.110107	104.597641
789.886353	1104.803589	2315.555664	2366.422119	104.201225
790.197083	1102.480835	2321.470459	2370.207520	103.998154
790.507690	1098.695313	2320.459473	2368.336182	103.918655
790.818359	1099.792236	2312.114258	2356.528564	103.663574
791.128845	1098.394287	2292.391357	2339.042480	103.907135
791.439331	1097.297363	2270.732666	2314.695557	103.746513
791.749756	1095.619629	2247.246338	2294.714600	104.121841
792.060120	1096.092896	2224.662842	2272.195313	104.211746
792.370483	1097.361694	2201.928711	2250.343506	104.383148
792.680786	1093.597778	2184.206055	2232.254883	104.405693
792.990967	1093.619263	2169.795898	2213.779541	104.087029
793.301086	1095.189453	2154.396240	2198.917725	104.203285
793.611267	1093.275269	2141.577393	2183.604004	104.009018
793.921326	1095.254028	2130.070557	2170.204590	103.878372
794.231323	1095.834839	2122.757568	2167.322266	104.339638
794.541260	1097.576782	2120.929443	2164.117432	104.220245
794.851074	1098.308105	2121.144287	2164.397217	104.228722
795.161011	1099.297607	2123.252197	2165.709229	104.146378
795.470764	1099.512573	2126.284912	2176.570801	104.897469
795.780518	1099.598755	2132.049072	2188.464844	105.464264
796.090149	1102.050659	2141.147217	2201.025391	105.762520
796.399780	1099.663208	2146.158447	2207.198242	105.832787
796.709412	1098.458618	2155.600586	2217.457275	105.851311
797.018860	1099.512573	2160.504395	2223.587158	105.945641
797.328308	1100.222412	2166.117920	2229.631104	105.958672
797.637756	1098.953369	2165.515625	2230.383789	106.081985
797.947205	1098.738403	2166.655518	2233.437744	106.253502
798.256470	1097.942505	2161.364502	2232.835693	106.720871
798.565674	1098.243652	2157.278076	2226.770508	106.561867
798.874817	1099.125488	2148.309082	2214.403320	106.299591
799.183960	1098.501831	2141.921387	2200.960938	105.658272
799.493103	1098.480225	2131.447021	2185.711670	105.253281
799.802124	1101.749512	2121.531494	2175.968506	105.338104
800.111084	1102.265503	2105.830811	2159.450439	105.342911
800.419983	1103.319458	2098.023438	2151.771973	105.403473
800.728821	1102.846313	2086.774658	2142.738525	105.687798
801.037659	1104.997070	2080.709473	2134.049561	105.466782
801.346436	1102.781738	2071.482666	2123.316895	105.350899
801.655151	1102.953979	2065.804443	2113.229492	104.925484
801.963745	1103.642090	2057.674316	2103.486572	104.801964
802.272400	1102.201050	2050.490479	2092.667969	104.447746
802.580933	1102.201050	2039.693359	2082.279541	104.542564
802.889404	1100.630981	2028.745972	2073.353760	104.806274
803.197815	1099.082520	2021.282837	2066.621826	104.916389
803.506226	1099.297607	2016.185425	2062.922119	105.097321
803.814575	1100.566528	2007.926147	2055.329834	105.224358
804.122864	1101.190308	2004.979614	2051.437012	105.140289
804.431030	1100.007324	2001.473877	2048.662354	105.234634
804.739197	1102.201172	2001.990112	2045.694580	104.857193
805.047241	1102.416138	2005.754028	2047.114014	104.578575
805.355408	1101.426758	2007.345703	2049.845459	104.691345
805.663391	1099.146973	2007.990601	2054.426758	105.109367
805.971313	1099.168457	2010.550049	2057.868164	105.191910
806.279175	1098.286621	2015.131226	2058.620850	104.743401
806.587036	1097.641479	2015.045410	2059.653320	104.862404
806.894836	1098.566284	2019.046021	2060.363037	104.488640
807.202576	1098.351074	2019.497314	2060.147705	104.413025
807.510193	1096.888550	2016.873535	2058.405762	104.514442
807.817810	1095.210938	2012.937622	2055.674072	104.656776
808.125427	1093.791504	2003.044067	2051.157227	105.291504
808.432922	1094.114136	1993.773804	2043.974121	105.579926
808.740295	1094.587280	1982.503540	2036.704224	106.104256
809.047729	1097.576904	1975.276978	2027.498535	105.949821
809.355103	1097.039185	1967.017944	2018.465332	105.913635
809.662415	1098.329590	1958.005981	2011.216919	106.189644
809.969604	1100.652466	1948.585449	2002.291016	106.333702
810.276794	1098.867310	1934.863403	1994.075073	107.082771
810.583923	1098.996460	1925.744141	1984.052612	107.052750
810.890991	1101.254761	1915.011597	1975.599731	107.445480
811.197998	1102.093628	1908.214844	1963.748779	106.889030
811.505005	1103.018433	1904.429321	1955.683228	106.395462
811.811829	1101.706421	1894.557129	1946.047729	106.494362
812.118713	1101.899902	1888.190918	1938.584473	106.409019
812.425537	1099.835205	1879.695313	1933.142944	106.853493
812.732300	1098.222168	1872.963257	1927.873413	107.087547
813.038940	1097.684448	1866.187988	1921.915527	107.251434
813.345581	1098.845825	1863.585571	1914.688721	106.682426
813.652100	1099.060913	1860.918823	1907.677246	106.137421
813.958740	1097.426270	1856.810913	1904.945679	106.338654
814.265137	1096.953125	1852.681152	1900.235474	106.292519
814.571533	1097.921021	1844.830811	1898.751465	107.219162
814.877930	1098.329590	1838.356934	1896.234863	107.821053
815.184265	1099.039429	1836.184448	1895.783325	108.085098
815.490540	1097.770386	1834.356323	1893.653931	108.050331
815.796692	1097.254150	1834.635864	1891.954712	107.773293
816.102844	1099.211426	1837.539551	1893.438721	107.571045
816.408936	1100.523438	1839.324341	1896.901611	107.793343
816.714966	1099.211426	1841.475098	1899.353638	107.797569
817.020935	1100.673950	1842.270996	1903.784424	108.294724
817.326843	1103.964722	1845.712402	1905.246582	108.026207
817.632690	1102.158081	1852.294067	1909.978516	107.689865
817.938477	1101.835449	1856.961304	1916.861206	107.932442
818.244263	1101.792480	1867.629272	1924.432007	107.417084
818.549988	1100.760010	1873.328857	1929.787476	107.307907
818.855652	1103.470093	1885.846558	1943.294434	107.342743
819.161194	1103.706665	1902.515503	1963.469116	107.630562
819.466797	1103.771118	1925.163330	1986.504272	107.467926
819.772278	1103.255005	1952.435425	2016.443359	107.537613
820.077698	1102.738770	1988.138794	2052.297363	107.246277
820.383057	1101.813843	2028.810669	2096.732910	107.327126
820.688354	1098.673706	2080.752441	2155.901611	107.652054
820.993652	1101.663330	2157.772705	2239.309814	107.720520
821.298828	1101.684814	2304.586670	2393.178467	107.364838
821.604004	1100.630981	2572.469482	2693.925537	108.251999
821.909058	1099.835205	2981.638184	3139.550537	108.391548
822.214111	1096.953125	3465.762695	3664.583008	108.393257
822.519165	1097.985474	3929.153320	4171.312988	108.553352
822.824036	1096.824097	4320.793457	4599.989258	108.660004
823.128906	1095.361450	4639.757813	4946.784668	108.662315
823.433716	1096.178833	4895.488281	5226.926758	108.723648
823.738525	1094.673340	5104.998047	5447.448730	108.539223
824.043213	1094.049683	5264.351074	5614.201172	108.389084
824.347900	1090.887817	5364.987793	5723.999512	108.399704
824.652466	1090.414551	5375.397949	5733.097168	108.347740
824.957031	1093.103149	5241.897461	5571.529297	107.945244
825.261536	1093.318237	4947.731445	5250.543457	107.856239
825.565979	1093.167725	4563.447266	4827.351074	107.604683
825.870300	1095.705688	4180.711426	4410.955078	107.463310
826.174622	1097.125122	3872.071045	4074.999023	107.312874
826.478821	1098.157593	3660.776367	3841.142334	107.038353
826.783142	1096.867188	3533.771240	3703.598633	106.968979
827.087280	1097.469482	3464.859375	3627.374268	106.864731
827.391357	1099.361938	3414.552246	3578.357666	107.075233
827.695435	1101.211670	3371.278320	3529.986084	106.991325
827.999451	1102.416138	3325.917725	3483.377930	107.081642
828.303406	1102.179565	3276.857910	3439.264893	107.468102
828.607239	1101.964478	3237.540771	3394.313232	107.340988
828.911011	1102.459106	3190.309326	3346.436523	107.477905
829.214844	1099.942749	3143.464844	3289.827148	107.162254
829.518616	1098.609375	3076.682617	3215.194336	107.002357
829.822205	1098.781372	2972.583496	3103.244629	106.973045
830.125793	1098.673706	2829.640869	2946.149902	106.730865
830.429382	1099.168457	2664.308838	2769.913086	106.747269
830.732849	1098.824341	2509.278564	2602.967773	106.642487
831.036316	1096.824097	2377.025635	2459.982422	106.479980
831.339661	1096.651978	2268.861816	2341.666748	106.210915
831.642944	1093.748413	2178.850830	2243.460693	105.954262
831.946228	1096.286377	2102.174561	2160.611816	105.809517
832.249512	1098.222046	2045.307129	2101.980957	105.984024
832.552673	1099.082275	2010.528564	2065.094727	105.986763
832.855774	1102.932373	1996.849487	2055.674072	106.580544
833.158813	1104.997192	2013.561401	2077.418701	107.028374
833.461731	1103.921753	2059.653076	2131.317871	107.498428
833.764771	1103.900269	2119.768066	2201.003906	107.996696
834.067627	1103.104492	2185.711914	2272.432129	108.010307
834.370422	1102.975464	2241.912354	2334.547119	108.133438
834.673157	1101.663452	2288.176025	2390.317383	108.608536
834.975891	1101.900024	2330.245850	2433.140137	108.376656
835.278564	1098.308105	2362.443115	2467.918701	108.343697
835.581177	1096.910156	2382.402588	2486.910400	108.129791
835.883728	1095.985229	2384.703857	2491.943359	108.321404
836.186218	1092.802002	2366.636963	2467.574463	107.923904
836.488647	1090.307129	2323.083252	2419.848389	107.849365
836.791077	1092.092285	2254.881348	2342.914063	107.570824
837.093384	1090.586792	2176.441650	2252.494141	107.003929
837.395630	1090.737305	2090.258789	2159.665283	106.943970
837.697815	1093.017090	2016.034790	2081.784912	107.123390
838.000061	1094.286255	1949.897705	2003.538574	106.269302
838.302124	1096.006714	1888.363281	1936.282837	106.047729
838.604126	1098.996338	1832.979980	1881.415894	106.599045
838.906128	1098.566284	1788.243042	1834.291748	106.676857
839.208069	1100.910645	1753.615112	1796.975464	106.643181
839.510010	1100.050293	1732.945801	1775.682495	106.752563
839.811829	1101.061157	1722.105835	1759.443848	106.012131
840.113586	1101.985962	1716.105103	1754.088257	106.184982
840.415222	1102.351685	1711.566895	1749.464111	106.220665
840.716919	1102.050537	1712.921875	1748.152222	105.767227
841.018555	1100.630981	1710.857056	1744.216064	105.466667
841.320068	1100.523560	1709.136353	1745.872192	106.035995
841.621521	1097.641357	1705.630737	1747.721924	106.923012
841.922974	1097.512329	1703.781128	1742.409424	106.371483
842.224365	1096.221802	1698.167480	1735.204224	106.152840
842.525635	1095.727173	1688.209351	1721.654175	105.644867
842.826965	1097.619873	1671.691040	1706.275879	106.024483
843.128174	1098.673706	1646.139526	1683.283691	106.784744
843.429260	1097.447754	1618.781250	1654.140259	106.782417
843.730408	1101.663208	1595.208496	1630.373901	107.125061
844.031433	1103.362427	1574.797241	1606.177612	106.656357
844.332397	1105.384277	1555.224976	1584.604980	106.531204
844.633362	1105.083130	1538.384277	1564.215332	105.961456
844.934204	1106.029419	1523.844604	1545.244995	105.121979
845.235046	1107.234009	1509.713989	1529.200073	104.841507
845.535828	1108.266357	1497.755371	1513.800659	104.119576
845.836487	1108.546021	1485.108521	1503.024902	104.757874
846.137146	1107.642700	1474.763428	1489.453491	104.001427
846.437744	1105.556396	1465.708496	1477.150879	103.177101
846.738281	1105.147583	1457.642944	1469.257324	103.294907
847.038757	1102.179565	1449.856934	1461.643555	103.390106
847.339172	1099.749146	1439.275024	1454.631958	104.523056
847.639526	1098.329590	1433.338867	1447.684692	104.282219
847.939819	1097.748901	1427.101563	1444.028442	105.139442
848.240112	1097.512207	1421.896606	1437.941528	104.946266
848.540283	1096.479980	1416.369141	1432.801270	105.136818
848.840393	1097.533813	1413.573120	1431.510620	105.675720
849.140564	1094.888428	1410.583374	1428.435059	105.654724
849.440552	1096.888672	1405.034302	1424.563599	106.337685
849.740540	1097.082153	1402.818970	1420.477051	105.775581
850.040405	1098.910400	1400.259644	1416.562622	105.409996
850.340210	1097.985596	1397.183838	1411.207153	104.686966
850.640137	1098.695435	1395.613770	1406.088379	103.527771
850.939819	1098.652344	1392.194092	1403.636230	103.897957
851.239502	1096.910156	1388.193481	1396.947266	103.005249
851.539185	1096.178955	1387.333130	1392.796265	101.876373
851.838745	1095.748779	1385.676880	1389.225952	101.224121
852.138245	1094.458130	1379.504272	1385.440430	102.082527
852.437744	1095.920776	1376.944824	1379.934448	101.063835
852.737122	1094.608643	1377.912598	1377.375000	99.810242
853.036499	1095.641113	1375.912354	1374.385254	99.455132
853.335815	1094.802246	1372.449585	1373.331421	100.317612
853.635010	1095.963623	1369.954712	1373.030396	101.122551
853.934204	1095.899170	1371.395630	1372.449585	100.382568
854.233276	1095.985229	1372.707886	1371.116089	99.424767
854.532410	1095.791748	1372.428223	1370.234253	99.206909
854.831482	1096.157349	1368.943848	1370.943970	100.733215
855.130371	1094.974487	1366.298340	1369.954590	101.347557
855.429260	1096.049927	1364.212158	1368.599731	101.636162
855.728088	1094.479736	1360.727783	1368.771729	103.021225
856.026855	1094.221558	1355.888550	1367.201660	104.323479
856.325623	1094.264526	1354.361450	1367.395264	105.011139
856.624329	1094.737793	1354.124878	1366.276855	104.684883
856.922913	1095.124878	1352.404175	1364.556152	104.723267
857.221436	1097.426270	1348.661743	1365.201294	106.583290
857.519958	1097.727417	1345.715088	1363.330200	107.103218
857.818420	1097.942383	1343.327759	1363.330200	108.151443
858.116821	1099.856567	1341.951172	1361.846069	108.217819
858.415161	1102.179565	1343.241699	1361.910645	107.744453
858.713379	1102.738770	1342.553589	1362.641846	108.376572
859.011658	1107.018799	1343.542847	1362.792480	108.138550
859.309814	1108.115723	1343.306274	1363.566772	108.614502
859.607910	1107.470581	1341.456543	1363.093628	109.247169
859.905945	1108.868652	1340.897339	1360.146973	108.296227
860.203979	1107.707153	1340.209106	1359.415771	108.260864
860.501953	1107.879272	1338.531494	1357.393921	108.177864
860.799744	1107.707153	1335.713989	1357.867188	109.716026
861.097656	1109.642822	1335.950439	1355.350708	108.572525
861.395325	1109.513794	1336.337646	1353.458008	107.547867
861.693115	1108.416870	1335.090088	1352.275146	107.581421
861.990784	1108.804199	1335.434326	1349.543701	106.225731
862.288330	1107.384521	1333.261963	1347.500244	106.303543
862.585815	1104.739136	1334.401855	1347.242188	105.590950
862.883301	1106.244629	1334.294434	1346.403442	105.309807
863.180786	1106.072632	1332.702881	1347.070190	106.339539
863.478149	1107.018799	1330.745605	1346.510864	107.046654
863.775452	1105.319824	1330.272339	1346.596924	107.256905
864.072693	1108.072876	1331.455200	1343.843872	105.545952
864.369873	1109.750366	1331.390747	1344.510620	105.919441
864.667114	1108.997681	1328.680664	1345.715088	107.754097
864.964111	1108.223511	1327.970947	1345.586060	108.016075
865.261169	1106.653198	1327.347168	1343.886963	107.494446
865.558105	1105.190796	1328.938843	1342.703979	106.152069
865.855042	1105.362793	1327.261230	1340.252075	105.854408
866.151917	1103.878662	1326.099731	1339.735840	106.136284
866.448730	1100.652466	1325.863159	1338.875488	105.777847
866.745422	1102.373047	1327.454590	1335.928955	103.765022
867.042114	1100.781616	1327.583862	1336.552612	103.954437
867.338806	1096.609009	1324.422241	1336.767822	105.419167
867.635376	1094.673218	1321.066895	1332.810303	105.187164
867.931824	1096.458496	1322.765991	1331.734863	103.963135
868.228271	1096.781128	1320.077515	1330.422974	104.633064
868.524658	1096.307861	1319.561401	1330.659546	104.971092
868.821045	1098.824341	1318.120361	1330.551880	105.668831
869.117310	1098.458618	1315.474731	1328.422729	105.966377
869.413574	1096.888550	1314.958740	1327.067627	105.552750
869.709717	1097.856567	1312.205566	1325.454590	106.181053
870.005859	1095.038940	1308.957886	1325.260986	107.621155
870.301880	1096.437012	1308.463257	1323.110229	106.908096
870.597900	1095.490601	1308.334106	1321.045410	105.972137
870.893860	1095.813232	1311.990479	1324.443604	105.760605
871.189636	1092.371948	1311.753906	1322.852051	105.058823
871.485535	1092.845093	1311.108643	1323.196167	105.538040
871.781311	1092.006348	1310.269897	1323.045654	105.853363
872.077026	1090.264160	1310.700073	1322.766113	105.473717
872.372681	1091.963379	1311.818481	1323.905884	105.497894
872.668274	1093.210815	1312.807861	1322.593872	104.456352
872.963806	1092.715942	1314.592896	1323.389771	103.964752
873.259338	1093.275269	1318.679565	1323.927490	102.328224
873.554688	1093.812988	1319.346191	1324.400757	102.241165
873.850098	1096.695190	1320.507813	1329.024902	103.805458
874.145447	1096.501465	1318.335449	1328.766724	104.702286
874.440674	1100.265503	1317.582520	1329.433472	105.453300
874.735840	1099.362183	1320.335693	1329.820679	104.292366
875.031006	1101.577393	1323.110107	1330.745483	103.446609
875.326050	1100.437378	1323.970581	1330.960571	103.127045
875.621094	1101.190186	1325.389893	1332.788818	103.300148
875.916077	1103.599121	1325.583618	1336.294678	104.825142
876.210999	1106.502686	1326.917114	1334.617065	103.493401
876.505798	1107.363037	1322.895142	1335.842896	106.007347
876.800598	1106.997192	1321.776855	1335.778442	106.519051
877.095337	1104.007690	1322.077881	1333.262085	105.128716
877.390015	1106.201538	1323.088745	1331.756348	103.996361
877.684692	1105.728516	1322.335938	1332.982300	104.915047
877.979187	1107.470581	1319.884033	1334.380371	106.824585
878.273804	1105.534790	1319.862549	1335.046997	107.084686
878.568237	1106.136963	1322.701660	1338.316406	107.210197
878.862610	1103.061401	1325.884766	1339.219727	105.984543
879.156921	1100.889160	1330.896118	1340.467285	104.161247
879.451172	1098.071533	1337.219604	1349.608154	105.180283
879.745422	1098.759888	1348.382202	1358.533936	104.066833
880.039612	1097.555298	1361.480591	1372.621704	104.221313
880.333679	1098.587769	1381.999146	1393.333984	103.999428
880.627686	1097.017578	1415.164673	1431.618286	105.171700
880.921692	1096.221802	1469.020752	1489.668457	105.538567
881.215698	1096.350830	1556.386353	1582.002441	105.568283
881.509460	1099.362183	1671.239380	1711.330444	107.010429
881.803345	1099.469604	1812.289063	1864.833252	107.371315
882.097046	1101.512817	1959.898804	2025.691895	107.664742
882.390808	1102.115112	2098.131104	2183.066162	108.527481
882.684448	1103.685059	2225.781250	2322.244629	108.596710
882.978027	1101.082642	2336.439941	2442.022949	108.546761
883.271545	1102.566772	2432.086426	2547.692139	108.695297
883.565002	1103.147583	2508.117432	2629.314941	108.626343
883.858398	1102.588379	2560.855225	2682.482910	108.340561
884.151733	1101.211670	2581.567383	2699.625000	107.974953
884.445068	1100.846069	2557.413818	2670.416992	107.758179
884.738281	1099.233032	2489.964600	2590.557617	107.233101
885.031433	1099.168335	2383.198486	2474.198975	107.087097
885.324585	1100.738403	2262.624268	2340.375977	106.691856
885.617676	1098.738281	2142.071777	2203.004150	105.840164
885.910645	1097.576904	2026.401489	2075.461670	105.281967
886.203552	1099.168457	1921.829590	1962.049683	104.889023
886.496521	1099.942749	1824.979004	1855.305176	104.182709
886.789368	1100.673950	1740.645996	1763.465942	103.565773
887.082153	1102.760254	1661.023071	1680.573853	103.502075
887.374817	1103.728149	1595.316040	1610.844849	103.158905
887.667480	1103.577637	1537.825073	1549.482422	102.684494
887.960083	1104.222900	1492.916382	1503.691772	102.772209
888.252625	1103.642212	1455.427734	1468.203369	103.631653
888.545166	1103.190552	1428.241699	1441.253784	104.003090
888.837524	1105.599487	1404.969849	1418.476807	104.511787
889.129883	1107.255493	1386.171875	1398.689453	104.487930
889.422241	1106.696411	1371.417358	1383.418701	104.533585
889.714478	1093.511841	1322.292847	1386.408447	128.024872
890.006714	1107.707153	1357.544556	1359.673828	100.852264
890.298767	1110.072998	1317.324585	1325.605103	103.995392
890.590881	1113.858398	1319.453735	1317.087891	98.849274
890.882935	1094.694824	1328.207642	1336.961304	103.748688
>>>>>End Processed Spectral Data<<<<<
