Jaz Data File
++++++++++++++++++++++++++++++++++++
Date: Mon Apr 22 19:26:44 2019
User: jaz
Dark Spectrum Present: Yes
Reference Spectrum Present: Yes
Processed Spectrum Present: Yes
Spectrometers: JAZA2928
Integration Time (usec): 40000 (JAZA2928)
Spectra Averaged: 10 (JAZA2928)
Boxcar Smoothing: 5 (JAZA2928)
Correct for Electrical Dark: No (JAZA2928)
Strobe/Lamp Enabled: Yes (JAZA2928)
Correct for Detector Non-linearity: No (JAZA2928)
Correct for Stray Light: No (JAZA2928)
Number of Pixels in Processed Spectrum: 2048
>>>>>Begin Processed Spectral Data<<<<<
W	D	R	S	P
190.104553	0.000000	0.000000	0.000000	0.000000
190.488098	0.000000	0.000000	0.000000	0.000000
190.871613	1077.423828	1084.994751	1054.001587	-309.371033
191.255096	1080.499390	1079.079956	1044.538086	2533.496826
191.638535	0.000000	0.000000	0.000000	0.000000
192.021942	903.294739	908.865295	892.110535	-200.773544
192.405334	1004.317993	1010.039124	994.252197	-175.940689
192.788696	1107.599609	1112.288330	1096.587402	-234.865921
193.172012	1111.471069	1116.052246	1103.534546	-173.242020
193.555313	1116.138306	1118.654663	1112.976563	-125.647621
193.938568	1122.375488	1122.956299	1117.945068	-762.799500
194.321793	1125.386597	1126.505127	1119.299927	-544.166748
194.704987	1126.655640	1129.473267	1122.117554	-161.060562
195.088150	1127.429810	1129.387207	1123.300537	-210.957275
195.471298	1126.505249	1131.710083	1125.021118	-28.514471
195.854401	1127.494629	1132.054199	1124.182373	-72.644035
196.237457	1129.064575	1128.957031	1122.805786	5819.750488
196.620499	1129.043091	1130.441040	1119.816162	-660.033203
197.003494	1127.171875	1130.140137	1118.654785	-286.938629
197.386475	1126.999878	1131.129395	1117.622314	-227.086227
197.769424	1126.419067	1132.441406	1115.923218	-174.281952
198.152344	1123.365112	1134.527832	1113.148804	-91.521683
198.535217	1120.934570	1135.947266	1115.729614	-34.670364
198.918076	1121.149658	1138.098022	1115.363892	-34.137611
199.300903	1121.838013	1139.668091	1116.869507	-27.865868
199.683670	1123.838257	1144.421387	1116.632935	-35.005959
200.066422	1123.730591	1145.023560	1118.998901	-22.221840
200.449142	1121.967041	1147.884277	1118.246094	-14.357038
200.831848	1122.719849	1149.174683	1122.612183	-0.406981
201.214508	1123.537109	1149.002686	1123.300537	-0.928988
201.597137	1122.891846	1150.120972	1124.074707	4.344103
201.979736	1122.612183	1152.874146	1122.848877	0.782151
202.362274	1122.633789	1149.088623	1124.462036	6.910824
202.744827	1121.257202	1147.625977	1123.020996	6.688949
203.127319	1119.171021	1146.055908	1122.504761	12.400053
203.509796	1116.525513	1142.786621	1124.074707	28.746670
203.892227	1113.406860	1136.872070	1124.074829	45.462917
204.274643	1110.567749	1137.151489	1121.945557	42.799873
204.657013	1110.804321	1134.850342	1119.794800	37.388634
205.039352	1108.223389	1132.441406	1116.697510	34.990978
205.421661	1104.932617	1135.796753	1117.321289	40.139378
205.803940	1103.964722	1135.516968	1114.783325	34.287903
206.186188	1103.771118	1133.344727	1115.643555	40.145378
206.568405	1101.921387	1134.248169	1114.439087	38.722382
206.950592	1103.297974	1136.119263	1113.664917	31.586033
207.332748	1101.340698	1133.882446	1112.395874	33.972286
207.714859	1099.964233	1136.269775	1110.116089	27.962275
208.096939	1099.598511	1137.732422	1109.255737	25.324511
208.478989	1098.695190	1137.280762	1110.954956	31.772928
208.861008	1098.931763	1138.291626	1112.912109	35.519299
209.243011	1099.318848	1140.765137	1113.062622	33.160446
209.624969	1098.652222	1139.410034	1110.460205	28.971092
210.006897	1098.480103	1140.377808	1110.868896	29.569147
210.388794	1097.469238	1141.345703	1108.567505	25.294350
210.770645	1097.426270	1141.603882	1108.588989	25.267820
211.152481	1097.146606	1140.549927	1110.503296	30.773428
211.534286	1097.404785	1143.152344	1110.976440	29.666403
211.916061	1097.490723	1141.238159	1110.223511	29.105221
212.297791	1097.985474	1142.119995	1108.782471	24.463837
212.679489	1097.125122	1143.195435	1105.599243	18.393887
213.061157	1093.662354	1142.313599	1104.911011	23.121006
213.442795	1093.812988	1142.786743	1104.824951	22.485437
213.824402	1094.071167	1142.829712	1106.308960	25.098766
214.205963	1094.823730	1141.496216	1105.599365	23.087767
214.587524	1093.705444	1141.195190	1106.975830	27.943686
214.969025	1094.952881	1142.937378	1109.535278	30.389811
215.350510	1093.554932	1145.948486	1107.190918	26.026075
215.731949	1092.823730	1144.572021	1109.040649	31.338076
216.113358	1092.221558	1147.841309	1110.395630	32.675571
216.494736	1093.361328	1147.239014	1113.471191	37.325031
216.876083	1093.124878	1145.324707	1117.600830	46.888950
217.257401	1094.823975	1146.765747	1119.106567	46.749641
217.638702	1094.910034	1149.389771	1119.429077	45.005802
218.019943	1095.791748	1151.841553	1118.482666	40.483490
218.401169	1094.006592	1152.142700	1119.256958	43.433189
218.782349	1094.372070	1154.788208	1118.783813	40.405998
219.163498	1094.436646	1158.272583	1118.676270	37.971752
219.544632	1098.286621	1158.659668	1120.074341	36.088490
219.925705	1102.416138	1162.423584	1119.278442	28.100353
220.306778	1103.104370	1163.929199	1121.149536	29.667435
220.687805	1101.082520	1168.661011	1121.558350	30.299330
221.068802	1101.770996	1176.640503	1119.235474	23.326555
221.449738	1101.985840	1182.598145	1122.052979	24.893394
221.830673	1099.340454	1186.620117	1122.956421	27.057812
222.211563	1098.394043	1191.932617	1125.881470	29.386194
222.592438	1098.759766	1200.084106	1129.150757	29.993771
222.973267	1099.060913	1206.730225	1132.699463	31.242468
223.354065	1097.727417	1211.655518	1135.409424	33.075253
223.734848	1093.791382	1217.828369	1137.474365	35.217709
224.115555	1090.436157	1228.302734	1139.281128	35.429161
224.496262	1092.694458	1238.497559	1139.904785	32.379509
224.876923	1092.178223	1246.498535	1142.614746	32.683010
225.257568	1091.016846	1255.639526	1149.432739	35.484718
225.638168	1088.113281	1265.554688	1150.400635	35.103054
226.018723	1090.479248	1277.147583	1156.121704	35.165287
226.399277	1092.328735	1291.923462	1161.799927	34.806126
226.779785	1094.759277	1309.861206	1168.295288	34.186588
227.160263	1093.726929	1333.046875	1175.349976	34.106243
227.540695	1093.103149	1363.351685	1183.544678	33.466057
227.921112	1091.984741	1408.217529	1199.266846	33.925041
228.301483	1092.501099	1466.525879	1220.817993	34.307056
228.681824	1092.006348	1543.460083	1244.003784	33.668442
229.062134	1095.339966	1631.212891	1273.190186	33.188881
229.442413	1095.404419	1713.438232	1297.451172	32.691860
229.822647	1099.469604	1782.349976	1319.367676	32.201550
230.202881	1100.846069	1832.011841	1334.746094	31.990013
230.583054	1100.674072	1871.651245	1347.736816	32.045403
230.963196	1098.372681	1904.106934	1359.673828	32.430191
231.343292	1097.576782	1930.819946	1367.352173	32.376549
231.723404	1097.146606	1946.348755	1374.794067	32.695095
232.103439	1098.372681	1940.670654	1370.879639	32.352798
232.483459	1098.630737	1913.054321	1359.910645	32.081573
232.863434	1096.802612	1867.650757	1348.554321	32.659054
233.243393	1091.662109	1814.934814	1328.702393	32.773293
233.623306	1092.909668	1767.294434	1313.732788	32.744381
234.003174	1092.242920	1737.763672	1306.119019	33.132336
234.383041	1089.382324	1724.880371	1302.053955	33.465347
234.762848	1090.930786	1717.675293	1297.881348	33.019924
235.142639	1091.855591	1711.932495	1292.999023	32.438465
235.522385	1094.135498	1708.491089	1292.912964	32.355442
235.902115	1095.834839	1710.212036	1290.374878	31.664593
236.281799	1095.641113	1716.384766	1292.805420	31.762598
236.661438	1096.178833	1729.009888	1297.451050	31.805048
237.041077	1095.576660	1740.946899	1298.569458	31.453697
237.420654	1098.458618	1747.033569	1303.709961	31.646511
237.800217	1097.963989	1755.550659	1305.000488	31.484291
238.179733	1098.351074	1761.530029	1305.000488	31.160431
238.559219	1100.372925	1769.509644	1304.957520	30.574409
238.938690	1098.265137	1782.220703	1307.882446	30.647797
239.318100	1096.630493	1800.158325	1312.119629	30.629795
239.697510	1097.017578	1821.687988	1315.367310	30.130901
240.076859	1097.168091	1847.260986	1322.185425	29.998596
240.456177	1098.178955	1891.976440	1331.132690	29.346746
240.835464	1096.651855	1948.263184	1346.532471	29.342096
241.214722	1097.275757	2024.745728	1367.997559	29.189280
241.593948	1097.963989	2132.092285	1395.097534	28.732754
241.973129	1097.856567	2259.333740	1431.295654	28.708191
242.352295	1097.297363	2406.750000	1472.870605	28.681698
242.731415	1097.856323	2553.327148	1513.821899	28.579451
243.110519	1095.877686	2674.417480	1547.008911	28.579021
243.489578	1095.877686	2769.440186	1574.410156	28.593641
243.868607	1096.049805	2835.943115	1593.702759	28.602499
244.247604	1097.684448	2886.035156	1608.994995	28.591179
244.626541	1098.910278	2917.953125	1622.609741	28.789837
245.005493	1099.792114	2945.719727	1629.384644	28.689777
245.384369	1100.114868	2970.948975	1637.579224	28.728596
245.763229	1100.609497	2998.909180	1645.171509	28.686831
246.142059	1102.760254	3052.937500	1658.420410	28.492804
246.520859	1102.351685	3154.261475	1683.240601	28.309673
246.899612	1100.889038	3308.366943	1723.052002	28.184334
247.278336	1101.942993	3494.518799	1771.982788	28.004957
247.657043	1102.394653	3664.540039	1815.665894	27.838827
248.035690	1101.405273	3803.309570	1855.993286	27.928007
248.414322	1100.867676	3921.002197	1885.093750	27.808109
248.792908	1099.297607	4008.367432	1907.806152	27.792683
249.171478	1099.835205	4061.642822	1920.452759	27.706646
249.550003	1101.104126	4068.827148	1921.893799	27.657219
249.928482	1100.588013	4035.661621	1913.269409	27.688620
250.306961	1099.620117	3942.724854	1887.395020	27.708261
250.685364	1099.362061	3780.747803	1845.411377	27.823275
251.063782	1100.652466	3577.324951	1790.996094	27.873837
251.442123	1101.168701	3379.536865	1736.860474	27.901188
251.820450	1102.416138	3241.261963	1700.382690	27.957441
252.198761	1102.201050	3168.177490	1677.691772	27.855627
252.576996	1101.276245	3111.740479	1661.367188	27.858788
252.955246	1101.921509	3063.153809	1645.752075	27.729023
253.333420	1101.039673	3017.792969	1634.395996	27.826029
253.711578	1100.437500	2990.306152	1624.653076	27.738201
254.089706	1100.308472	2965.872803	1615.425903	27.611883
254.467804	1098.716675	2948.537354	1609.210083	27.596912
254.845871	1099.856567	2933.202148	1603.144897	27.451908
255.223877	1098.996338	2907.005371	1596.713989	27.528494
255.601898	1100.480347	2870.334229	1587.314819	27.507044
255.979828	1098.265137	2818.026367	1572.990601	27.604149
256.357727	1098.630737	2763.826172	1556.601440	27.502520
256.735657	1098.480225	2741.457764	1551.805054	27.591663
257.113525	1098.071411	2758.492432	1555.418457	27.544041
257.491333	1098.480347	2812.197754	1569.312622	27.474323
257.869110	1097.835083	2891.799072	1591.874634	27.538990
258.246887	1097.684448	3007.146729	1622.953613	27.508747
258.624573	1097.232788	3174.092285	1669.453979	27.552237
259.002289	1097.275757	3402.142090	1728.128052	27.370451
259.379944	1098.566284	3704.265625	1808.912231	27.261242
259.757538	1098.415649	4068.052490	1905.784668	27.187468
260.135162	1099.318970	4428.032715	1996.505493	26.952948
260.512665	1100.760010	4715.939453	2070.793945	26.832249
260.890228	1099.792114	4904.715332	2117.918213	26.758123
261.267700	1101.147095	5016.622070	2148.008057	26.736500
261.645142	1101.942871	5083.039063	2163.278809	26.659389
262.022552	1103.211914	5120.677734	2172.828369	26.624159
262.399994	1102.717285	5125.904297	2172.140381	26.581491
262.777313	1103.857178	5080.715820	2154.782959	26.426027
263.154602	1104.911011	4961.216309	2123.725342	26.419443
263.531921	1102.824707	4760.159180	2064.126709	26.284224
263.909149	1102.459106	4480.791504	1988.891724	26.238762
264.286377	1101.491333	4192.583984	1914.280151	26.294546
264.663574	1099.878174	3972.277100	1857.004395	26.358673
265.040710	1101.921509	3845.767090	1824.333618	26.328453
265.417816	1099.168457	3795.782227	1808.417847	26.301481
265.794891	1099.340576	3797.803955	1806.030151	26.188593
266.171936	1099.104004	3841.508057	1814.353638	26.081118
266.548950	1099.921265	3899.708740	1827.903809	26.001348
266.925934	1101.383789	3954.425049	1842.056152	25.960800
267.302887	1100.329834	4020.368896	1857.369873	25.925682
267.679810	1102.308594	4091.776367	1876.705811	25.904184
268.056671	1102.652710	4176.216797	1892.772217	25.706949
268.433502	1101.749512	4266.658203	1912.645752	25.621473
268.810333	1101.684814	4350.517578	1933.830933	25.613695
269.187073	1099.039429	4426.677734	1949.080200	25.544868
269.563843	1101.362305	4488.276855	1964.522949	25.485161
269.940521	1100.588013	4541.895996	1978.374268	25.507343
270.317200	1099.899780	4605.710449	1991.644531	25.436193
270.693848	1099.146973	4713.035645	2017.475464	25.411089
271.070435	1097.705933	4884.304199	2059.739014	25.406263
271.447021	1095.856323	5082.371582	2103.228271	25.269487
271.823547	1093.920532	5251.705078	2138.415527	25.121431
272.200043	1092.931152	5382.043457	2168.418945	25.074835
272.576538	1096.501465	5496.100098	2195.863525	24.987782
272.952972	1096.630493	5606.415527	2216.016357	24.821268
273.329346	1099.641602	5698.835449	2240.342041	24.802183
273.705688	1097.490723	5766.155762	2253.763184	24.766661
274.082062	1094.221558	5809.837891	2262.301758	24.770468
274.458344	1094.049438	5806.568848	2259.355225	24.727871
274.834595	1093.060059	5748.755371	2243.396240	24.708151
275.210846	1093.748413	5652.141113	2215.349609	24.605190
275.587006	1095.361572	5538.041016	2188.529297	24.606045
275.963165	1096.135864	5473.688965	2176.054443	24.669456
276.339294	1095.920898	5444.265625	2173.817627	24.788668
276.715393	1094.329224	5440.265137	2171.989258	24.796961
277.091461	1093.942017	5437.361816	2171.774414	24.815294
277.467438	1092.931152	5444.867676	2169.429932	24.736086
277.843445	1094.372192	5460.289551	2174.441406	24.738653
278.219452	1097.361816	5481.604004	2177.968994	24.647524
278.595337	1097.275757	5513.521484	2181.797119	24.557541
278.971191	1097.318726	5547.805664	2185.496826	24.450766
279.347046	1096.716553	5572.969727	2191.454346	24.456568
279.722870	1095.727051	5607.189453	2196.723877	24.404432
280.098663	1096.953125	5631.234863	2202.208496	24.375534
280.474396	1098.222168	5683.004883	2209.865479	24.246368
280.850098	1099.727539	5749.679688	2224.383301	24.186394
281.225800	1099.770630	5852.595703	2247.762451	24.153883
281.601440	1099.125488	5983.816895	2273.679688	24.045618
281.977051	1098.996338	6153.665527	2309.275391	23.943785
282.352600	1100.265503	6314.695801	2344.032227	23.852400
282.728149	1102.996948	6448.454590	2378.187256	23.855587
283.103668	1104.007935	6547.198242	2401.802979	23.842543
283.479156	1102.588379	6633.079590	2419.547119	23.812691
283.854553	1102.502319	6720.380859	2437.097656	23.756216
284.229950	1098.480347	6819.877930	2457.874756	23.759832
284.605347	1096.501587	6916.750000	2477.790771	23.732477
284.980652	1094.888428	7007.728516	2495.879150	23.694042
285.355988	1092.500977	7095.331055	2517.516113	23.739056
285.731201	1094.243042	7173.210938	2536.744385	23.729380
286.106445	1094.888428	7234.551758	2548.788818	23.680458
286.481659	1094.802368	7309.464355	2564.317627	23.645939
286.856781	1091.490112	7380.248047	2575.200928	23.593067
287.231934	1093.942017	7436.878418	2587.180908	23.541759
287.607025	1097.254272	7468.667480	2593.482666	23.483463
287.982056	1100.114868	7471.699707	2593.396729	23.436584
288.357086	1103.577637	7457.009766	2587.180908	23.351210
288.732086	1104.201294	7427.049805	2577.824707	23.306322
289.107025	1104.373413	7399.476563	2570.146484	23.284338
289.481934	1106.137085	7369.988770	2558.833252	23.191740
289.856842	1104.395020	7367.579590	2559.499756	23.232666
290.231659	1103.276611	7383.409668	2561.285156	23.216206
290.606506	1102.717407	7399.583984	2564.102539	23.208132
290.981262	1104.029419	7420.532715	2572.985596	23.255844
291.355988	1103.341064	7460.408203	2586.019531	23.323309
291.730713	1101.276245	7499.531250	2598.838379	23.405790
292.105377	1100.996582	7523.040527	2610.366699	23.502954
292.480011	1102.115112	7531.126953	2620.561279	23.618656
292.854614	1101.340698	7544.418945	2633.831787	23.785076
293.229187	1102.093628	7573.949707	2654.156738	23.981731
293.603729	1104.115356	7617.632324	2683.751709	24.251665
293.978241	1103.771240	7652.840332	2709.582764	24.519690
294.352692	1101.964478	7681.683105	2743.522461	24.948755
294.727081	1101.061035	7708.525391	2782.322998	25.444889
295.101501	1098.609253	7761.865234	2819.961914	25.833508
295.475830	1095.512085	7848.133301	2869.086182	26.264973
295.850189	1095.038940	7991.893555	2933.739502	26.659988
296.224457	1091.683716	8203.381836	3022.675537	27.152330
296.598694	1089.403809	8463.350586	3119.439941	27.529844
296.972931	1089.016602	8729.597656	3223.001465	27.929615
297.347107	1088.586426	8935.946289	3309.980225	28.307531
297.721283	1087.898071	9061.037109	3370.933838	28.634087
298.095367	1089.769409	9098.051758	3409.411865	28.965546
298.469452	1092.737427	9080.931641	3426.338379	29.213123
298.843475	1092.199707	9037.636719	3430.081055	29.424200
299.217529	1094.587158	8972.337891	3430.489746	29.651897
299.591492	1096.436890	8892.672852	3419.864258	29.801910
299.965424	1098.135864	8774.442383	3397.818848	29.958197
300.339325	1102.179565	8594.958008	3352.286133	30.030334
300.713196	1103.513062	8374.263672	3303.119385	30.252811
301.087036	1105.448730	8138.126465	3241.003906	30.366175
301.460815	1104.975586	7937.585938	3184.222412	30.431223
301.834564	1103.771118	7774.533203	3138.926514	30.508589
302.208282	1103.125854	7649.119141	3099.609619	30.499325
302.582001	1103.297974	7531.814453	3063.175049	30.487236
302.955658	1103.297974	7423.306641	3032.676758	30.528103
303.329254	1100.889038	7332.241699	3004.199951	30.544106
303.702820	1101.276245	7248.747070	2980.390625	30.567276
304.076416	1100.910645	7176.007813	2962.431396	30.641827
304.449921	1099.491089	7122.452637	2946.837891	30.671736
304.823395	1099.749146	7062.165527	2926.986084	30.645912
305.196838	1099.426636	7003.878418	2906.725830	30.609095
305.570251	1097.921021	6932.858887	2884.744629	30.622837
305.943604	1096.479980	6870.485840	2865.021729	30.629372
306.316986	1096.350952	6825.146973	2854.482666	30.689377
306.690277	1094.759399	6800.218750	2848.933838	30.745543
307.063507	1094.200073	6800.971680	2847.256104	30.718876
307.436768	1095.038940	6830.372070	2855.644287	30.697527
307.809937	1092.328979	6880.078125	2872.764648	30.762144
308.183136	1093.081665	6951.484375	2893.627441	30.734413
308.556244	1091.640747	7039.259277	2918.770264	30.720354
308.929321	1092.802002	7145.702637	2943.525879	30.575819
309.302399	1091.963379	7244.488770	2976.734619	30.634108
309.675446	1093.597778	7353.104492	3007.577148	30.577160
310.048401	1095.167969	7449.568359	3034.784912	30.523996
310.421356	1093.662354	7553.624512	3061.540771	30.462694
310.794281	1094.049438	7670.606445	3092.577148	30.388662
311.167145	1096.264771	7784.168945	3120.429688	30.266056
311.539978	1100.437378	7864.242676	3140.518066	30.161730
311.912781	1102.588135	7910.098145	3148.519287	30.054031
312.285553	1101.147095	7899.667480	3142.625732	30.028278
312.658295	1102.308472	7851.940430	3122.150146	29.925213
313.031006	1101.254639	7786.728027	3104.685791	29.966928
313.403656	1101.792358	7728.354980	3081.478760	29.875013
313.776276	1101.663208	7684.435547	3068.746094	29.882286
314.148865	1102.029053	7688.415527	3064.594727	29.797304
314.521454	1105.040161	7694.351563	3065.670166	29.754702
314.893982	1103.147583	7677.596680	3061.411621	29.785978
315.266449	1101.018311	7620.212891	3046.872070	29.848070
315.638885	1095.899292	7539.772949	3027.514893	29.976002
316.011322	1094.544189	7452.429199	3001.726807	29.997124
316.383667	1094.759277	7385.065430	2979.401367	29.961056
316.756042	1094.458130	7327.316895	2968.583008	30.068462
317.128326	1094.049561	7277.848145	2952.860596	30.059372
317.500610	1094.329102	7220.959473	2934.858398	30.041462
317.872833	1094.157104	7145.443848	2910.489746	30.015644
318.245087	1094.608643	7047.453613	2882.120605	30.027861
318.617218	1093.468872	6948.925293	2852.245850	30.036547
318.989319	1094.780762	6877.604980	2829.898926	30.004684
319.361420	1097.684448	6835.212402	2818.456787	29.991529
319.733490	1100.889160	6807.423828	2809.187012	29.935818
320.105530	1099.792114	6786.690430	2801.250488	29.918917
320.477509	1100.566528	6764.343750	2794.841064	29.914215
320.849457	1101.512817	6742.125488	2785.872070	29.861280
321.221375	1099.899780	6731.974609	2776.279541	29.764872
321.593231	1100.200806	6729.565430	2774.279297	29.738319
321.965088	1100.802979	6731.823242	2774.903320	29.729963
322.336884	1102.459106	6746.857422	2778.903564	29.701029
322.708618	1100.265381	6786.432617	2788.861816	29.696568
323.080414	1101.254761	6844.159668	2806.197510	29.687811
323.452118	1102.179565	6947.871582	2835.512695	29.651463
323.823761	1099.899658	7085.007324	2875.388428	29.665112
324.195343	1102.846313	7229.239258	2919.673584	29.655741
324.566925	1101.061035	7372.160645	2957.742676	29.606955
324.938507	1099.189941	7509.081055	2993.854736	29.558455
325.310059	1099.964355	7620.814453	3032.160400	29.631044
325.681519	1099.663208	7736.399902	3066.186523	29.630877
326.052948	1098.802856	7852.091797	3097.459229	29.595303
326.424408	1094.458130	7916.723145	3118.042236	29.661470
326.795776	1097.275757	7936.703613	3125.505371	29.654961
327.167084	1095.705688	7906.787109	3113.847900	29.630276
327.538391	1093.490356	7825.529785	3088.274902	29.631207
327.909668	1095.296997	7721.903320	3050.442383	29.504475
328.280884	1095.813232	7621.073730	3015.384277	29.417538
328.652100	1096.802734	7529.922363	2990.370850	29.434679
329.023254	1097.856445	7453.332520	2968.711914	29.436905
329.394348	1098.200562	7390.443359	2949.139648	29.416206
329.765442	1097.834839	7310.196777	2925.222900	29.415352
330.136475	1098.351074	7226.937988	2902.768555	29.442635
330.507538	1099.878174	7159.510742	2880.357178	29.382622
330.878479	1097.619873	7106.687500	2863.473633	29.386486
331.249420	1098.673706	7078.705078	2855.279053	29.374517
331.620331	1097.168091	7080.082520	2855.708984	29.392714
331.991211	1096.092896	7099.223633	2867.925537	29.515142
332.362030	1094.716309	7135.120605	2880.787354	29.568733
332.732819	1093.877441	7177.190430	2895.133057	29.609781
333.103577	1092.888184	7218.851074	2913.350098	29.717155
333.474304	1093.103271	7245.328125	2921.974854	29.726995
333.845001	1093.103271	7266.728516	2930.169434	29.756685
334.215668	1095.318481	7282.107422	2933.955078	29.718754
334.586273	1096.221802	7310.819824	2945.762939	29.761234
334.956818	1097.490845	7336.048340	2959.485107	29.846550
335.327362	1096.437012	7358.523926	2973.271729	29.971394
335.697876	1099.534058	7373.127930	2979.702881	29.969566
336.068329	1099.964355	7380.677734	2980.928711	29.948259
336.438751	1099.964233	7374.892578	2984.692383	30.035852
336.809174	1103.233521	7369.923828	2984.649414	30.022480
337.179504	1103.018433	7381.000000	2984.627930	29.971569
337.549896	1103.469971	7413.283203	2996.973389	30.008865
337.920135	1105.814331	7465.849609	3013.448975	29.994089
338.290375	1104.115234	7520.394043	3033.924316	30.076765
338.660614	1103.835815	7566.679688	3046.872070	30.064726
339.030792	1104.975708	7605.523438	3053.260254	29.971083
339.400940	1107.556641	7646.431152	3061.325195	29.879278
339.771027	1106.309204	7679.596680	3071.692383	29.899546
340.141083	1106.825317	7714.590820	3086.941650	29.966503
340.511139	1107.965210	7751.798828	3097.932129	29.952089
340.881134	1105.642456	7796.600098	3112.557861	29.994442
341.251068	1105.599243	7825.829590	3122.860107	30.017733
341.621002	1104.373291	7840.841797	3132.452393	30.105968
341.990875	1101.233154	7849.101563	3137.205566	30.172083
342.360718	1099.964233	7858.995117	3139.291992	30.171896
342.730560	1100.136230	7879.062012	3149.551514	30.232155
343.100311	1097.834961	7921.325195	3170.887451	30.381117
343.470032	1097.383301	7984.279297	3196.417725	30.478672
343.839752	1097.125122	8068.074707	3229.776611	30.593412
344.209442	1098.028564	8161.526855	3261.285889	30.625864
344.579041	1096.523071	8264.938477	3298.128906	30.712589
344.948639	1095.813232	8365.853516	3333.380615	30.777924
345.318176	1098.845825	8455.262695	3365.707031	30.814747
345.687714	1098.286621	8552.909180	3393.710693	30.791956
346.057190	1098.200562	8625.068359	3418.272705	30.823875
346.426636	1100.136230	8678.581055	3439.135742	30.863846
346.796051	1099.297363	8703.013672	3450.836182	30.926178
347.165405	1099.985596	8698.797852	3454.385254	30.983784
347.534729	1099.598633	8657.610352	3445.394775	31.037212
347.904083	1099.770752	8593.752930	3424.295166	31.018547
348.273315	1099.211426	8511.786133	3401.389160	31.057734
348.642517	1099.491089	8436.227539	3379.128174	31.071543
349.011719	1099.749146	8361.422852	3356.932129	31.083509
349.380890	1096.781006	8308.834961	3344.693848	31.168831
349.749969	1097.942505	8260.614258	3337.918945	31.272919
350.119049	1101.147217	8238.375977	3334.069336	31.285563
350.488098	1102.308716	8235.384766	3335.273438	31.304375
350.857117	1103.534668	8238.632813	3336.047852	31.289173
351.226074	1102.179565	8268.012695	3341.661133	31.252214
351.595001	1102.910889	8313.008789	3356.932129	31.262007
351.963867	1102.910889	8365.336914	3381.257813	31.371706
352.332764	1099.813721	8432.206055	3403.798340	31.422003
352.701538	1099.146973	8501.246094	3431.866211	31.514294
353.070343	1100.738525	8591.322266	3466.042236	31.577026
353.439056	1100.867676	8685.075195	3499.293701	31.623951
353.807770	1101.233276	8792.744141	3535.061523	31.643044
354.176453	1100.243896	8898.822266	3576.787354	31.756346
354.545105	1096.781128	9022.581055	3622.792725	31.870749
354.913666	1096.931641	9173.868164	3683.122803	32.019455
355.282227	1098.652344	9334.511719	3744.184326	32.122112
355.650757	1095.770264	9501.285156	3803.718994	32.216335
356.019226	1095.899292	9686.339844	3861.790527	32.197315
356.387695	1097.275757	9897.461914	3937.154541	32.270668
356.756104	1097.727417	10147.257813	4022.412354	32.318638
357.124451	1096.458496	10424.130859	4118.058594	32.393936
357.492828	1095.856201	10681.905273	4209.059082	32.476395
357.861084	1096.716553	10896.963867	4285.412598	32.536896
358.229401	1096.436890	11065.134766	4342.645508	32.564014
358.597595	1100.028687	11179.878906	4387.490234	32.614189
358.965759	1098.308105	11285.785156	4424.075195	32.645641
359.333923	1097.576904	11397.927734	4464.037109	32.682968
359.702057	1099.770630	11556.829102	4521.743164	32.724045
360.070129	1098.329590	11736.874023	4589.536621	32.816586
360.438141	1100.695435	11947.889648	4665.804199	32.866646
360.806122	1102.717163	12195.875977	4756.718262	32.939228
361.174133	1104.502441	12475.975586	4860.709961	33.031849
361.542053	1106.201660	12787.734375	4969.906250	33.075321
361.909912	1104.782104	13059.295898	5069.445313	33.164570
362.277771	1104.072266	13289.452148	5155.047363	33.244553
362.645599	1102.523560	13435.535156	5209.161133	33.297932
363.013367	1101.684937	13487.328125	5231.443359	33.343105
363.381134	1101.878540	13454.527344	5226.797852	33.392998
363.748810	1100.824707	13341.522461	5193.051758	33.431324
364.116455	1101.792480	13151.778320	5137.345703	33.490105
364.484100	1100.136353	12877.100586	5050.109375	33.539825
364.851715	1097.426270	12500.042969	4921.771484	33.539188
365.219238	1095.641113	12017.209961	4761.407715	33.564472
365.586761	1094.071167	11496.714844	4589.063965	33.597160
365.954224	1092.587036	11045.755859	4439.367188	33.625275
366.321686	1092.113770	10687.518555	4312.211426	33.558750
366.689117	1093.275269	10452.758789	4235.772461	33.575539
367.056458	1096.824097	10290.286133	4179.507324	33.531254
367.423737	1097.533936	10172.636719	4137.910645	33.502396
367.791077	1098.630859	10063.891602	4103.691406	33.518944
368.158295	1099.362061	9978.162109	4073.343506	33.495308
368.525543	1099.899658	9899.936523	4048.071289	33.501808
368.892700	1102.222534	9826.788086	4027.940430	33.534252
369.259827	1103.233521	9775.147461	4009.228027	33.510418
369.626953	1104.567017	9742.949219	4000.302490	33.521732
369.994019	1105.083130	9712.256836	3987.418945	33.487598
370.361053	1105.814453	9696.125977	3991.720215	33.594891
370.728027	1104.201294	9690.146484	3988.967041	33.598694
371.094971	1102.545166	9704.665039	3997.785400	33.657288
371.461914	1099.792114	9732.152344	4008.969727	33.700836
371.828796	1099.964355	9764.951172	4022.605713	33.729324
372.195618	1099.383545	9808.225586	4039.898438	33.764706
372.562408	1099.598633	9839.046875	4053.061523	33.794617
372.929199	1098.867310	9875.116211	4065.880371	33.807304
373.295898	1096.544434	9908.454102	4079.021240	33.845974
373.662598	1097.576782	9953.125977	4095.840820	33.857464
374.029236	1098.093018	9996.227539	4114.703613	33.901608
374.395844	1098.802856	10033.027344	4130.791504	33.936787
374.762421	1100.566528	10077.097656	4153.912109	34.014763
375.128967	1099.555542	10134.545898	4177.119629	34.062725
375.495483	1103.448608	10215.415039	4213.124512	34.127384
375.861908	1101.125854	10344.572266	4259.732422	34.171307
376.228333	1100.609497	10513.862305	4320.492188	34.205845
376.594727	1098.265137	10751.439453	4413.320801	34.341614
376.961090	1097.770386	11016.181641	4513.183105	34.435078
377.327393	1101.211792	11269.352539	4612.851563	34.535709
377.693665	1099.620117	11461.527344	4689.893066	34.648766
378.059906	1100.243896	11601.781250	4742.222168	34.680431
378.426086	1101.190186	11685.490234	4781.560059	34.771973
378.792267	1100.781494	11717.967773	4795.174805	34.796349
379.158386	1100.200806	11706.439453	4800.616211	34.889050
379.524445	1098.006958	11674.457031	4794.508301	34.950302
379.890503	1099.964233	11605.610352	4779.430664	35.023701
380.256531	1100.996582	11494.047852	4752.588867	35.134941
380.622467	1102.953857	11331.468750	4697.355957	35.140999
380.988403	1103.255005	11130.669922	4635.262207	35.223507
381.354279	1101.104126	10936.257813	4570.394043	35.274387
381.720154	1099.426636	10784.260742	4523.291504	35.352848
382.085968	1100.738525	10692.442383	4502.020020	35.460659
382.451752	1099.491089	10663.148438	4498.298828	35.538784
382.817474	1100.028809	10677.924805	4516.667480	35.672119
383.183197	1101.512939	10747.503906	4552.779297	35.779282
383.548859	1101.211792	10817.749023	4593.149902	35.938091
383.914490	1099.491211	10895.329102	4631.456055	36.055771
384.280060	1099.276123	10966.520508	4671.396484	36.201805
384.645599	1098.802856	11036.163086	4710.863281	36.348289
385.011108	1096.781128	11120.754883	4754.911621	36.493816
385.376617	1095.426147	11219.089844	4805.584961	36.648376
385.742035	1095.684082	11332.500977	4862.688477	36.798592
386.107452	1093.361328	11437.826172	4915.598145	36.949585
386.472778	1093.210815	11530.417969	4964.593750	37.092133
386.838135	1090.823364	11626.559570	5016.255859	37.258266
387.203430	1090.328735	11692.825195	5058.218262	37.424110
387.568634	1089.446777	11741.561523	5095.706543	37.609993
387.933838	1091.296509	11771.308594	5124.140137	37.760670
388.299042	1091.855713	11806.624023	5148.573730	37.860996
388.664124	1089.403809	11833.939453	5172.640625	38.002918
389.029236	1092.931152	11843.661133	5196.794434	38.172878
389.394318	1094.114136	11856.931641	5222.668457	38.359417
389.759308	1094.157104	11859.254883	5248.026367	38.586452
390.124298	1094.415161	11897.474609	5282.912109	38.771397
390.489227	1096.178833	11985.441406	5334.059082	38.917973
390.854126	1096.350830	12100.639648	5397.744141	39.088337
391.218964	1097.748901	12246.528320	5479.238281	39.300171
391.583771	1097.641479	12404.568359	5559.140625	39.458103
391.948578	1094.372192	12542.930664	5641.774414	39.720306
392.313354	1092.436401	12655.502930	5710.600098	39.938919
392.678040	1094.522705	12759.365234	5777.403809	40.145256
393.042694	1091.554565	12871.121094	5840.551270	40.315548
393.407349	1093.705322	12997.244141	5915.335449	40.505852
393.771942	1094.630371	13137.218750	5991.215820	40.660576
394.136505	1093.985107	13233.640625	6052.599609	40.846416
394.501007	1091.145996	13250.416016	6087.765137	41.093086
394.865479	1092.113770	13191.269531	6090.217285	41.309521
395.229919	1090.715820	13059.208984	6058.190918	41.504601
395.594360	1094.264771	12900.953125	6015.777832	41.684113
395.958710	1098.007080	12755.558594	5970.846680	41.799854
396.323029	1098.953491	12622.725586	5939.660645	42.006271
396.687286	1099.254517	12495.181641	5908.817871	42.204231
397.051544	1100.932129	12373.447266	5881.309082	42.407368
397.415771	1098.888794	12218.524414	5835.970703	42.601055
397.779938	1099.426636	12045.384766	5785.620117	42.812088
398.144043	1100.803101	11876.718750	5742.840820	43.077892
398.508148	1099.383545	11731.345703	5700.878906	43.279831
398.872192	1099.039429	11617.761719	5672.917969	43.483212
399.236237	1099.297485	11542.204102	5661.433105	43.686459
399.600189	1097.060669	11490.456055	5663.970703	43.940502
399.964111	1095.920776	11451.311523	5667.648926	44.148293
400.328003	1094.866943	11420.555664	5670.703125	44.315067
400.691925	1093.081787	11410.338867	5686.317871	44.519939
401.055695	1093.554932	11395.217773	5699.416016	44.709881
401.419495	1093.404297	11390.186523	5717.310547	44.906322
401.783234	1092.522583	11416.532227	5742.044922	45.036015
402.146942	1093.490356	11432.211914	5766.671387	45.200764
402.510620	1096.071167	11475.981445	5808.978027	45.404118
402.874237	1096.910034	11545.322266	5862.640137	45.612003
403.237823	1097.942505	11646.604492	5932.520020	45.831192
403.601379	1097.899536	11783.717773	6016.078613	46.025291
403.964874	1097.598389	11953.416016	6113.832520	46.207798
404.328369	1098.845825	12137.160156	6212.576172	46.327095
404.691772	1101.899902	12298.964844	6309.857422	46.511810
405.055176	1100.394409	12461.372070	6406.449707	46.704212
405.418549	1100.760010	12608.122070	6489.642578	46.829868
405.781860	1100.953613	12710.436523	6559.973633	47.022079
406.145142	1100.372925	12804.383789	6619.809570	47.158504
406.508362	1096.910034	12858.259766	6663.148438	47.326527
406.871552	1096.071289	12872.971680	6683.409180	47.443195
407.234741	1095.533569	12855.744141	6689.064453	47.563183
407.597870	1096.286377	12795.436523	6673.234863	47.669685
407.960938	1099.082397	12714.909180	6652.716797	47.810925
408.323975	1098.759766	12628.490234	6633.467285	48.003788
408.686981	1099.318970	12567.297852	6624.154297	48.176193
409.049957	1099.405029	12529.293945	6625.251465	48.345585
409.412903	1100.050293	12531.552734	6644.565918	48.502075
409.775787	1099.942749	12562.309570	6674.677734	48.635109
410.138611	1100.652466	12608.766602	6720.617676	48.834808
410.501434	1103.900269	12662.795898	6762.665527	48.955933
410.864227	1104.609985	12703.165039	6803.789063	49.136978
411.226929	1104.502441	12739.277344	6836.351563	49.264801
411.589630	1104.696045	12787.863281	6872.055176	49.364693
411.952271	1103.835815	12802.446289	6896.789551	49.518307
412.314911	1103.083008	12808.704102	6922.406250	49.713921
412.677490	1101.577393	12819.889648	6934.751465	49.778275
413.040009	1104.545532	12832.342773	6943.419922	49.786629
413.402496	1102.523682	12817.157227	6942.924805	49.855602
413.764984	1102.652832	12790.637695	6939.225098	49.936516
414.127380	1100.953613	12777.344727	6935.998535	49.973019
414.489777	1100.329956	12783.412109	6943.763672	50.016201
414.852112	1101.104248	12831.394531	6971.509277	50.044842
415.214386	1100.932129	12908.696289	7007.664063	50.024136
415.576660	1100.222290	13008.063477	7065.090820	50.091942
415.938904	1098.695190	13161.844727	7143.874512	50.112778
416.301086	1101.211792	13343.672852	7229.196777	50.055172
416.663208	1101.512817	13534.774414	7322.133301	50.032089
417.025299	1097.964111	13747.102539	7428.942383	50.050671
417.387390	1097.641479	13993.647461	7551.687988	50.046864
417.749420	1097.383301	14281.855469	7699.298340	50.073410
418.111389	1097.576904	14608.261719	7859.554199	50.049110
418.473328	1096.738037	14982.374023	8048.846680	50.066906
418.835266	1094.673340	15378.788086	8245.386719	50.060596
419.197144	1096.781128	15816.389648	8468.963867	50.084095
419.558960	1096.092896	16293.288086	8709.100586	50.094822
419.920746	1095.684204	16814.921875	8982.166992	50.170902
420.282471	1095.899292	17418.888672	9296.011719	50.236584
420.644226	1094.608887	18049.289063	9627.428711	50.327229
421.005920	1092.393433	18652.761719	9956.157227	50.475952
421.367523	1092.909668	19205.388672	10257.699219	50.599308
421.729126	1092.436401	19689.105469	10524.678711	50.720058
422.090668	1091.640503	20103.029297	10764.666992	50.880169
422.452179	1092.414917	20437.283203	10961.702148	51.017597
422.813660	1092.156860	20766.935547	11162.609375	51.184574
423.175110	1089.382324	21078.695313	11363.537109	51.398239
423.536469	1089.016724	21354.472656	11542.440430	51.582478
423.897858	1088.328369	21574.929688	11686.954102	51.734428
424.259155	1086.242065	21651.544922	11765.480469	51.928429
424.620453	1086.134644	21666.791016	11818.303711	52.146873
424.981689	1091.188965	21630.486328	11830.864258	52.288429
425.342865	1092.092285	21562.048828	11833.982422	52.476372
425.704041	1091.769653	21472.617188	11816.690430	52.622547
426.065186	1093.769775	21369.960938	11786.750977	52.736637
426.426239	1094.565674	21230.953125	11742.616211	52.879650
426.787262	1096.522949	20996.988281	11644.691406	53.004631
427.148254	1096.888672	20678.130859	11492.886719	53.091618
427.509216	1098.028442	20293.246094	11306.842773	53.184158
427.870178	1098.222046	19842.652344	11080.771484	53.256088
428.231049	1097.942383	19410.876953	10856.205078	53.286179
428.591858	1100.179321	18984.113281	10626.650391	53.268318
428.952698	1098.910278	18575.439453	10417.162109	53.318665
429.313446	1099.189941	18204.597656	10217.610352	53.307232
429.674164	1101.985962	17855.242188	10031.048828	53.297478
430.034851	1101.147217	17533.355469	9858.511719	53.293896
430.395477	1100.244019	17253.707031	9710.064453	53.300152
430.756104	1099.297607	17029.400391	9588.780273	53.292076
431.116699	1097.297241	16851.013672	9494.918945	53.305656
431.477203	1095.727295	16712.544922	9422.243164	53.317623
431.837646	1097.318848	16644.773438	9387.636719	53.322670
432.198090	1098.243652	16616.832031	9386.022461	53.405499
432.558502	1095.619629	16627.585938	9406.003906	53.505039
432.918884	1095.641113	16653.998047	9430.846680	53.573811
433.279205	1094.049561	16710.177734	9478.744141	53.692532
433.639465	1093.533325	16786.314453	9539.569336	53.821156
433.999756	1095.060425	16865.056641	9609.383789	53.990650
434.359924	1097.211182	16953.216797	9672.508789	54.082333
434.720093	1097.899536	17034.044922	9738.603516	54.220791
435.080200	1099.641602	17095.513672	9792.826172	54.346424
435.440277	1101.211670	17160.146484	9849.649414	54.477074
435.800354	1099.275879	17185.830078	9902.214844	54.722343
436.160370	1097.340210	17192.820313	9939.683594	54.936810
436.520325	1099.189819	17192.820313	9975.816406	55.156147
436.880249	1098.265137	17205.078125	10008.745117	55.321190
437.240112	1098.050171	17215.617188	10046.792969	55.521675
437.599976	1098.265137	17262.482422	10103.101563	55.708458
437.959808	1097.662964	17333.457031	10170.893555	55.884121
438.319519	1096.350952	17413.857422	10257.141602	56.140873
438.679260	1091.145996	17536.646484	10361.821289	56.372112
439.038940	1092.586914	17707.978516	10489.148438	56.553360
439.398590	1092.414795	17931.275391	10653.792969	56.781616
439.758179	1092.866577	18226.859375	10844.719727	56.915245
440.117767	1095.124878	18574.494141	11072.769531	57.082405
440.477295	1095.490601	18934.453125	11294.710938	57.173843
440.836792	1095.920776	19279.357422	11529.879883	57.381664
441.196198	1098.867310	19575.050781	11723.108398	57.502357
441.555603	1098.544800	19804.392578	11886.289063	57.670437
441.914978	1098.265137	19959.164063	12010.734375	57.857628
442.274323	1098.738403	20082.167969	12099.822266	57.950981
442.633575	1103.728149	20140.388672	12165.787109	58.109241
442.992859	1103.685181	20138.429688	12201.596680	58.303444
443.352051	1103.384033	20087.412109	12191.274414	58.406418
443.711182	1105.491943	19969.117188	12156.237305	58.582298
444.070313	1103.921753	19825.337891	12093.090820	58.698387
444.429382	1103.771240	19678.630859	12035.319336	58.851307
444.788452	1103.448608	19573.458984	11996.991211	58.979626
445.147430	1101.641968	19542.746094	12007.100586	59.136696
445.506409	1097.963989	19594.320313	12052.396484	59.224815
445.865295	1094.264771	19736.939453	12140.944336	59.254803
446.224182	1092.888184	19956.279297	12293.157227	59.375698
446.583038	1093.899048	20226.097656	12458.209961	59.398872
446.941833	1092.630005	20505.294922	12641.500000	59.491425
447.300598	1093.597778	20762.875000	12819.113281	59.613354
447.659302	1091.877197	20991.054688	12966.790039	59.675396
448.018005	1093.791504	21158.558594	13080.202148	59.738594
448.376648	1093.597900	21260.806641	13158.016602	59.821957
448.735229	1096.652100	21288.230469	13185.353516	59.870018
449.093781	1098.157715	21246.203125	13173.202148	59.931595
449.452301	1100.308350	21122.595703	13113.474609	59.998970
449.810791	1103.577759	20923.970703	13018.924805	60.116604
450.169220	1103.900269	20623.998047	12856.214844	60.206226
450.527618	1102.373169	20295.289063	12677.075195	60.307159
450.885956	1103.706665	20003.423828	12504.021484	60.320026
451.244263	1103.771118	19716.507813	12339.506836	60.365845
451.602539	1104.781982	19494.673828	12210.394531	60.389763
451.960785	1104.480835	19310.414063	12108.619141	60.442596
452.318970	1108.094238	19172.310547	12031.040039	60.467308
452.677124	1104.609863	19023.412109	11950.512695	60.528053
453.035248	1104.222778	18869.242188	11869.772461	60.599709
453.393311	1105.599243	18696.167969	11782.492188	60.696690
453.751312	1104.695923	18529.070313	11688.652344	60.742241
454.109314	1107.212402	18388.814453	11602.620117	60.731686
454.467285	1109.169800	18245.613281	11515.276367	60.725006
454.825195	1108.739502	18072.367188	11420.618164	60.788174
455.183044	1109.943848	17904.023438	11323.337891	60.815445
455.540894	1106.545654	17691.955078	11208.743164	60.910145
455.898651	1106.674683	17504.232422	11100.514648	60.947121
456.256378	1101.856934	17306.982422	10988.695313	61.010563
456.614105	1103.061401	17179.052734	10906.040039	60.979000
456.971771	1104.050781	17093.775391	10849.386719	60.947491
457.329407	1101.749512	17093.128906	10848.032227	60.947109
457.686981	1101.684814	17167.417969	10898.597656	60.980179
458.044525	1099.598633	17346.685547	11006.396484	60.975842
458.402008	1099.189941	17633.281250	11194.118164	61.055229
458.759460	1098.458618	18066.625000	11464.022461	61.088295
459.116913	1096.329468	18630.761719	11821.421875	61.165897
459.474274	1098.286621	19308.283203	12226.009766	61.107769
459.831635	1098.630859	19928.597656	12606.702148	61.115726
460.188904	1098.738403	20480.904297	12952.099609	61.156021
460.546173	1098.587769	20918.871094	13237.619141	61.245499
460.903381	1097.684448	21253.000000	13449.021484	61.280788
461.260559	1098.093262	21482.876953	13595.813477	61.309067
461.617706	1101.082764	21610.376953	13679.287109	61.329285
461.974762	1100.803101	21586.716797	13675.329102	61.381329
462.331848	1099.017822	21431.537109	13589.016602	61.428684
462.688843	1099.856812	21097.753906	13388.497070	61.449665
463.045837	1099.856812	20608.511719	13089.858398	61.459911
463.402740	1100.028931	20001.488281	12737.191406	61.567535
463.759613	1098.759888	19425.611328	12392.977539	61.626614
464.116486	1099.017944	18915.269531	12077.840820	61.622520
464.473267	1100.222290	18506.187500	11830.370117	61.646381
464.830048	1099.899658	18187.908203	11632.559570	61.637730
465.186737	1101.491333	17932.179688	11479.292969	61.660000
465.543457	1098.910522	17749.082031	11366.719727	61.667889
465.900085	1096.135864	17683.847656	11334.608398	61.723240
466.256683	1093.877563	17708.130859	11342.114258	61.683399
466.613251	1093.081665	17779.880859	11389.216797	61.702278
466.969757	1092.156738	17868.923828	11439.396484	61.676006
467.326233	1092.974121	17954.439453	11486.089844	61.638271
467.682678	1093.468750	18007.349609	11517.771484	61.631645
468.039093	1094.329102	18032.878906	11540.010742	61.668095
468.395416	1091.554688	18023.759766	11532.934570	61.665802
468.751740	1089.511353	18002.896484	11540.011719	61.788342
469.108032	1089.511353	17967.236328	11525.451172	61.832623
469.464233	1089.877075	17925.876953	11501.749023	61.842907
469.820435	1095.770264	17833.671875	11449.547852	61.858273
470.176575	1097.533936	17685.136719	11370.269531	61.930195
470.532715	1099.340576	17518.494141	11277.375977	61.988789
470.888763	1103.470093	17376.755859	11203.344727	62.064140
471.244751	1103.190430	17260.076172	11139.831055	62.119896
471.600769	1103.534668	17199.617188	11116.387695	62.206776
471.956696	1104.029297	17199.033203	11127.443359	62.276554
472.312592	1104.717651	17266.589844	11175.449219	62.311665
472.668457	1105.964966	17356.882813	11243.995117	62.384354
473.024292	1107.126465	17486.939453	11325.381836	62.383228
473.380035	1106.954468	17572.779297	11395.799805	62.486065
473.735779	1106.007935	17660.789063	11461.958984	62.555653
474.091492	1104.953979	17747.638672	11533.108398	62.659084
474.447113	1102.179565	17866.193359	11615.267578	62.712238
474.802765	1098.394165	17964.505859	11696.890625	62.839001
475.158295	1098.587769	18087.423828	11793.719727	62.953884
475.513824	1099.491089	18213.548828	11889.473633	63.047478
475.869324	1098.114624	18362.341797	11993.293945	63.108414
476.224762	1098.781372	18489.732422	12098.552734	63.249969
476.580170	1100.007202	18638.607422	12201.082031	63.295105
476.935516	1099.082397	18791.574219	12320.730469	63.426048
477.290863	1099.469604	19031.796875	12488.537109	63.511372
477.646118	1096.867065	19283.615234	12661.913086	63.590511
478.001373	1097.533936	19573.435547	12853.097656	63.626465
478.356537	1098.609253	19855.857422	13049.552734	63.713734
478.711700	1100.501953	20156.970703	13252.136719	63.766457
479.066833	1099.254395	20462.707031	13462.634766	63.849049
479.421875	1097.555298	20789.414063	13690.018555	63.947556
479.776917	1098.544678	21111.562500	13927.446289	64.102783
480.131897	1098.222046	21482.617188	14181.799805	64.184288
480.486847	1097.146606	21913.056641	14480.396484	64.293373
480.841766	1098.781372	22435.853516	14850.484375	64.449814
481.196594	1098.953491	23050.208984	15277.204102	64.589706
481.551453	1098.093262	23857.900391	15828.156250	64.719627
481.906219	1095.211060	24897.945313	16557.556641	64.960373
482.260986	1094.479736	26347.199219	17553.119141	65.175713
482.615662	1092.135254	28416.939453	18985.191406	65.482834
482.970306	1093.640991	31148.205078	20973.373047	66.145470
483.324951	1093.619385	34243.640625	23392.123047	67.265434
483.679504	1092.673096	37399.925781	25946.136719	68.453163
484.034027	1092.113892	40339.859375	28278.429688	69.268478
484.388519	1091.597656	42912.027344	30225.937500	69.665329
484.742981	1089.898560	45000.953125	31759.136719	69.844002
485.097351	1088.586426	46633.558594	32945.824219	69.946770
485.451721	1092.759033	47805.765625	33834.578125	70.091438
485.806030	1096.501465	48616.898438	34463.734375	70.216652
486.160309	1096.114258	49095.046875	34891.851563	70.409355
486.514557	1098.135986	49099.496094	35008.144531	70.643852
486.868744	1098.265137	48648.539063	34717.054688	70.701569
487.222931	1097.856567	47882.898438	34062.199219	70.459152
487.577026	1099.168579	46976.785156	33222.441406	70.019493
487.931122	1100.071777	46097.984375	32485.636719	69.748932
488.285126	1101.964478	45262.703125	31895.673828	69.730965
488.639099	1103.642090	44510.371094	31441.380859	69.891785
488.993042	1103.706543	43848.421875	31080.345703	70.129463
489.346954	1101.727905	43273.769531	30776.031250	70.364868
489.700836	1102.609741	42718.285156	30492.830078	70.622955
490.054626	1103.233521	42111.195313	30154.748047	70.843597
490.408417	1100.889160	41562.910156	29862.449219	71.082863
490.762146	1102.093628	41075.882813	29624.726563	71.353340
491.115814	1103.491577	40714.914063	29472.492188	71.618233
491.469513	1103.599121	40368.914063	29336.324219	71.902451
491.823090	1102.007324	39915.222656	29112.167969	72.166557
492.176666	1101.813965	39426.257813	28858.242188	72.424866
492.530182	1100.609375	38929.359375	28598.294922	72.689911
492.883698	1099.813721	38390.558594	28309.744141	72.966972
493.237091	1099.017944	37800.746094	27976.994141	73.233551
493.590515	1099.232910	37121.738281	27558.445313	73.451897
493.943878	1098.243652	36263.609375	27026.232422	73.731598
494.297150	1101.233276	35105.378906	26257.812500	73.980927
494.650452	1100.630981	33647.519531	25263.130859	74.239044
495.003662	1100.093262	31910.638672	24050.720703	74.489517
495.356873	1099.792114	30217.744141	22854.574219	74.712608
495.710022	1100.028687	28792.429688	21865.718750	74.986961
496.063110	1098.329590	27677.992188	21130.251953	75.365601
496.416168	1098.867188	26896.216797	20623.158203	75.683319
496.769165	1100.544922	26366.167969	20304.861328	76.009666
497.122162	1100.286865	26053.806641	20138.431641	76.294426
497.475098	1100.566528	25846.599609	20048.720703	76.570473
497.828003	1100.803223	25765.664063	20059.453125	76.865021
498.180847	1099.190063	25726.951172	20088.142578	77.103851
498.533661	1096.479980	25654.445313	20095.349609	77.363373
498.886444	1097.598267	25577.039063	20100.017578	77.626038
499.239136	1096.221802	25444.720703	20054.376953	77.861702
499.591827	1097.727417	25234.654297	19946.986328	78.093033
499.944427	1098.222168	24928.873047	19754.210938	78.285690
500.297089	1096.243286	24563.923828	19514.203125	78.482231
500.649628	1095.899292	24183.425781	19261.375000	78.680908
501.002136	1097.017700	23780.343750	18991.988281	78.890419
501.354584	1097.232788	23425.330078	18766.517578	79.134750
501.707001	1100.394409	23066.189453	18518.617188	79.297028
502.059387	1102.523804	22777.572266	18318.914063	79.429535
502.411682	1104.524048	22528.509766	18156.294922	79.591965
502.764038	1104.265747	22331.023438	18026.470703	79.721100
503.116302	1104.480957	22180.294922	17939.210938	79.877007
503.468475	1104.803589	22081.445313	17890.388672	80.020363
503.820709	1104.954102	22042.277344	17875.140625	80.097092
504.172852	1105.943481	22012.984375	17882.431641	80.243248
504.524902	1106.136963	22011.242188	17896.755859	80.318268
504.876953	1104.588379	22025.222656	17921.189453	80.382843
505.228912	1102.631226	22043.330078	17938.523438	80.397949
505.580872	1100.222290	22069.484375	17968.140625	80.441162
505.932770	1096.953125	22046.945313	17972.033203	80.549339
506.284698	1098.996460	22020.857422	17959.923828	80.589996
506.636505	1100.695557	22023.373047	17961.472656	80.586136
506.988342	1100.179443	22017.480469	17958.095703	80.593170
507.340088	1100.136353	22023.845703	17961.451172	80.584732
507.691772	1100.674072	22037.267578	17966.376953	80.556099
508.043396	1099.684692	22092.435547	18007.027344	80.538956
508.395050	1100.308472	22172.833984	18056.195313	80.464424
508.746582	1101.555786	22285.621094	18152.250000	80.488297
509.098114	1101.039551	22428.003906	18268.931641	80.498528
509.449646	1099.405151	22588.648438	18386.880859	80.447113
509.801086	1100.200806	22787.533203	18527.544922	80.357254
510.152557	1097.447754	22997.281250	18683.906250	80.304077
510.503906	1094.909790	23199.820313	18837.603516	80.265846
510.855194	1096.114136	23391.392578	18978.654297	80.207748
511.206482	1096.028076	23587.716797	19124.369141	80.155571
511.557709	1094.587158	23787.632813	19282.582031	80.147881
511.908844	1096.458496	23983.898438	19423.417969	80.074310
512.260010	1095.275513	24123.050781	19532.140625	80.063599
512.611206	1094.415161	24226.591797	19585.523438	79.936745
512.962219	1096.178711	24295.806641	19613.462891	79.817162
513.313232	1099.512573	24345.337891	19625.335938	79.695274
513.664246	1099.899780	24347.125000	19611.419922	79.628944
514.015137	1101.663330	24320.863281	19571.005859	79.543404
514.366028	1103.362549	24279.220703	19508.201172	79.413841
514.716919	1103.319458	24214.181641	19432.492188	79.309776
515.067688	1103.706665	24113.310547	19325.404297	79.191704
515.418396	1106.158569	24022.310547	19223.242188	79.058144
515.769104	1105.857422	23951.248047	19123.466797	78.867592
516.119812	1105.857544	23936.923828	19068.445313	78.676079
516.470459	1104.136719	24019.449219	19101.205078	78.537300
516.821106	1103.943237	24165.898438	19180.761719	78.383720
517.171631	1102.631348	24438.595703	19361.259766	78.242439
517.522095	1104.072266	24824.949219	19629.982422	78.099602
517.872559	1101.104126	25355.875000	19997.554688	77.908180
518.222961	1099.491089	25922.587891	20397.904297	77.743782
518.573364	1099.878296	26497.068359	20795.867188	77.551842
518.923645	1097.447876	27009.025391	21139.392578	77.347450
519.273987	1095.813232	27444.949219	21424.888672	77.152725
519.624207	1095.017334	27744.255859	21604.742188	76.961769
519.974487	1094.845215	27967.314453	21735.789063	76.810745
520.324646	1097.146606	28054.812500	21748.457031	76.606445
520.674744	1099.426392	28052.123047	21687.873047	76.387337
521.024780	1100.351196	27905.179688	21525.376953	76.199051
521.374878	1100.415771	27644.673828	21258.808594	75.942574
521.724792	1102.588013	27274.068359	20918.701172	75.716438
522.074707	1100.544800	26863.738281	20545.533203	75.475845
522.424744	1100.136230	26471.169922	20202.566406	75.292282
522.774536	1100.265381	26182.986328	19927.349609	75.059975
523.124329	1099.082520	25963.087891	19702.699219	74.821480
523.474182	1100.846191	25892.238281	19601.117188	74.623772
523.823914	1101.426880	25940.138672	19577.523438	74.384277
524.173523	1102.029175	26151.929688	19675.642578	74.146454
524.523132	1100.588013	26546.710938	19923.996094	73.973579
524.872803	1100.007324	27100.238281	20275.738281	73.752159
525.222290	1098.544678	27838.675781	20772.101563	73.573151
525.571777	1098.695190	28641.482422	21304.767578	73.362480
525.921326	1100.544800	29516.044922	21890.238281	73.163216
526.270752	1100.996582	30439.126953	22511.562500	72.978630
526.620178	1103.706543	31463.101563	23196.810547	72.771881
526.969482	1103.663574	32721.966797	24060.701172	72.606796
527.318787	1102.416138	34311.453125	25160.000000	72.442886
527.668030	1102.416138	36333.511719	26619.623047	72.428085
528.017212	1100.588013	38582.175781	28349.382813	72.699150
528.366394	1098.243652	40807.421875	30101.193359	73.038399
528.715515	1099.964233	42803.152344	31616.736328	73.176109
529.064636	1102.201050	44375.453125	32744.982422	73.123184
529.413635	1101.125732	45543.597656	33546.761719	73.005920
529.762695	1100.652466	46308.406250	34021.660156	72.821594
530.111633	1098.028442	46743.621094	34247.386719	72.623352
530.460510	1096.415405	46786.746094	34205.445313	72.463974
530.809387	1096.996216	46388.996094	33836.839844	72.286148
531.158142	1095.017456	45484.238281	33098.402344	72.097198
531.506958	1094.006470	44063.546875	31935.568359	71.775406
531.855652	1096.759521	42402.140625	30487.798828	71.155472
532.204407	1096.049683	40807.140625	29036.994141	70.360558
532.552979	1095.081909	39555.570313	27906.037109	69.710388
532.901611	1093.963379	38680.625000	27110.156250	69.216560
533.250183	1090.522217	38107.992188	26564.107422	68.815041
533.598755	1091.511597	37671.503906	26162.037109	68.536171
533.947205	1093.834473	37317.117188	25822.812500	68.268188
534.295593	1093.770020	37026.246094	25534.000000	68.017105
534.643982	1093.146362	36790.921875	25291.414063	67.786484
534.992249	1098.329590	36565.519531	25069.255859	67.586197
535.340576	1099.211426	36345.882813	24855.294922	67.399513
535.688843	1096.867065	36093.421875	24604.685547	67.171806
536.037048	1098.351074	35689.480469	24251.886719	66.934891
536.385315	1097.727417	35053.160156	23731.306641	66.656723
536.733398	1093.404297	34230.691406	23089.615234	66.379028
537.081421	1097.963989	33336.515625	22397.699219	66.069145
537.429443	1098.781372	32512.695313	21769.169922	65.800102
537.777466	1099.964233	31796.349609	21207.810547	65.505585
538.125427	1099.491089	31195.392578	20743.042969	65.269859
538.473267	1100.652466	30718.154297	20359.599609	65.025566
538.821167	1096.157349	30342.189453	20041.751953	64.780052
539.169006	1093.490356	30042.281250	19758.750000	64.476822
539.516846	1095.404541	29785.906250	19533.798828	64.266548
539.864502	1094.393677	29725.533203	19423.074219	64.016594
540.212219	1093.597778	29960.894531	19493.082031	63.738163
540.559875	1096.415527	30618.244141	19835.511719	63.475391
540.907410	1095.189453	31609.419922	20405.560547	63.283165
541.254944	1091.812866	32749.218750	21066.437500	63.096214
541.602478	1088.629517	33840.988281	21696.429688	62.920048
541.949951	1091.081543	34812.960938	22242.064453	62.721840
542.297363	1090.995483	35665.558594	22701.521484	62.504120
542.644714	1090.952393	36393.113281	23096.429688	62.334644
542.992126	1094.909912	36898.488281	23358.527344	62.182659
543.339355	1094.909912	37133.890625	23434.236328	61.986565
543.686646	1095.641113	36962.300781	23254.923828	61.782398
544.033813	1096.028320	36350.503906	22802.609375	61.571136
544.380920	1098.544800	35273.101563	22069.982422	61.365643
544.728027	1098.157593	33893.148438	21149.308594	61.140892
545.075134	1099.577026	32485.080078	20190.285156	60.826519
545.422180	1102.609741	31191.500000	19330.761719	60.581005
545.769165	1100.136230	30101.513672	18592.884766	60.316956
546.116150	1101.512695	29163.873047	17960.439453	60.076653
546.463013	1103.620605	28333.876953	17386.626953	59.797478
546.809875	1101.147095	27652.351563	16919.429688	59.576515
547.156677	1100.222290	27041.158203	16496.064453	59.349602
547.503418	1099.340576	26523.564453	16131.546875	59.125523
547.850098	1099.555664	26053.443359	15793.204102	58.883205
548.196777	1099.060913	25603.150391	15472.499023	58.657303
548.543396	1099.684448	25154.019531	15154.653320	58.430084
548.890015	1099.921143	24654.173828	14817.278320	58.237286
549.236633	1099.577026	24106.105469	14447.424805	58.017651
549.583069	1099.383545	23500.394531	14057.503906	57.846138
549.929504	1100.953613	22837.970703	13633.624023	57.655884
550.275879	1100.846191	22184.296875	13204.300781	57.407372
550.622253	1102.136597	21534.345703	12775.753906	57.133408
550.968567	1102.953979	20971.779297	12406.266602	56.889683
551.314819	1105.255249	20489.205078	12092.230469	56.680790
551.661072	1104.029297	20128.861328	11857.382813	56.522724
552.007263	1102.029175	19904.488281	11684.867188	56.284328
552.353394	1103.190430	19757.716797	11557.862305	56.043617
552.699524	1104.480957	19663.253906	11467.614258	55.839535
553.045593	1102.373169	19617.462891	11399.799805	55.616402
553.391602	1104.631470	19596.880859	11344.136719	55.371872
553.737549	1101.168579	19576.876953	11285.850586	55.124714
554.083435	1101.770996	19533.453125	11221.433594	54.903629
554.429321	1103.706543	19478.607422	11148.929688	54.668175
554.775146	1101.942993	19381.414063	11059.584961	54.474453
555.120972	1101.018188	19274.023438	10962.068359	54.262074
555.466675	1102.115112	19112.755859	10833.622070	54.031986
555.812439	1104.222900	18910.880859	10691.926758	53.843365
556.158081	1103.556274	18680.765625	10533.798828	53.650394
556.503662	1102.824829	18449.339844	10370.553711	53.427032
556.849182	1104.739136	18225.054688	10208.533203	53.175385
557.194702	1103.061401	18018.554688	10065.311523	52.982491
557.540161	1104.588501	17818.185547	9935.208984	52.834946
557.885620	1104.330322	17654.017578	9827.475586	52.708824
558.231018	1102.050537	17501.242188	9718.902344	52.544369
558.576355	1100.265381	17381.789063	9622.288086	52.341679
558.921692	1102.115112	17289.044922	9536.041992	52.103313
559.266968	1101.985962	17192.560547	9455.063477	51.912861
559.612183	1100.007324	17111.517578	9383.635742	51.735466
559.957336	1100.157837	17059.187500	9329.133789	51.563133
560.302429	1099.211426	17023.355469	9292.806641	51.453915
560.647522	1098.673706	17005.095703	9264.781250	51.338432
560.992554	1097.211182	16996.341797	9232.971680	51.171104
561.337524	1097.168213	17005.804688	9212.969727	51.015068
561.682434	1095.275513	17022.130859	9192.966797	50.843002
562.027344	1095.662720	17028.236328	9168.297852	50.667492
562.372253	1099.039307	17038.152344	9153.133789	50.530380
562.717102	1099.189941	17022.064453	9128.506836	50.426300
563.061829	1097.813354	17045.335938	9112.741211	50.258137
563.406494	1096.974609	17039.208984	9082.695313	50.091602
563.751160	1093.253784	17025.033203	9054.002930	49.967735
564.095825	1093.963501	17028.648438	9029.720703	49.801785
564.440369	1093.060059	17044.304688	9017.697266	49.680370
564.784973	1095.146362	17087.515625	9018.579102	49.545082
565.129456	1094.329224	17191.763672	9045.808594	49.395943
565.473877	1093.705444	17318.017578	9086.824219	49.266300
565.818298	1091.167480	17494.449219	9162.983398	49.208546
566.162659	1090.801880	17690.904297	9234.304688	49.056946
566.507019	1087.661621	17885.035156	9316.852539	48.990944
566.851196	1090.844849	18033.029297	9375.570313	48.899986
567.195435	1090.930786	18181.650391	9431.771484	48.803337
567.539612	1094.350586	18281.232422	9461.903320	48.685692
567.883789	1093.038574	18350.337891	9474.765625	48.569168
568.227844	1094.350708	18373.931641	9461.688477	48.423271
568.571960	1094.243042	18368.382813	9435.707031	48.288734
568.915955	1094.888306	18297.125000	9378.688477	48.155365
569.259888	1096.587402	18214.556641	9321.735352	48.049793
569.603821	1099.405151	18094.542969	9244.177734	47.924129
569.947632	1099.426514	17961.880859	9169.458984	47.857990
570.291504	1100.544922	17867.480469	9100.160156	47.710659
570.635193	1097.146606	17825.111328	9072.349609	47.675873
570.979004	1099.275879	17849.824219	9064.756836	47.553551
571.322632	1100.695435	17954.826172	9094.717773	47.430641
571.666321	1101.190186	18077.617188	9138.443359	47.343605
572.009949	1102.072021	18221.482422	9198.213867	47.292175
572.353455	1102.566772	18347.908203	9250.715820	47.248405
572.696960	1101.254761	18457.728516	9296.592773	47.217758
573.040405	1099.146973	18533.201172	9318.487305	47.145313
573.383850	1098.587769	18599.574219	9331.694336	47.043671
573.727173	1099.297607	18644.417969	9345.867188	47.002064
574.070557	1099.577148	18657.710938	9344.233398	46.956337
574.413879	1100.953735	18657.667969	9327.866211	46.859062
574.757019	1099.813721	18610.478516	9296.206055	46.808006
575.100281	1097.447876	18509.691406	9244.757813	46.790695
575.443420	1097.125122	18375.201172	9173.072266	46.741009
575.786499	1094.458130	18211.888672	9083.405273	46.671417
576.129517	1091.361084	18045.138672	8990.318359	46.591133
576.472534	1090.909302	17876.083984	8901.381836	46.531975
576.815491	1091.296509	17689.091797	8808.230469	46.493732
577.158447	1090.221191	17486.445313	8709.401367	46.469112
577.501343	1090.049072	17278.958984	8598.527344	46.380383
577.844116	1089.167236	17046.132813	8476.082031	46.292728
578.187012	1089.769531	16777.798828	8342.496094	46.230961
578.529724	1090.479370	16485.935547	8198.951172	46.172531
578.872375	1090.285645	16187.790039	8047.319824	46.080692
579.215027	1092.199951	15902.677734	7907.840332	46.019047
579.557617	1093.834473	15631.097656	7769.306641	45.919731
579.900146	1097.426270	15371.777344	7640.645508	45.838993
580.242676	1098.200684	15135.146484	7525.512695	45.788536
580.585144	1098.372681	14925.915039	7423.199707	45.740791
580.927612	1099.964355	14731.781250	7326.068848	45.673328
581.269958	1099.598633	14558.878906	7238.101074	45.607956
581.612305	1099.770752	14418.152344	7171.038574	45.585625
581.954590	1099.125488	14297.750000	7106.643555	45.516243
582.296814	1099.512573	14190.812500	7057.970703	45.514641
582.639038	1100.200806	14103.037109	7013.190918	45.474621
582.981140	1099.340576	14021.628906	6962.604492	45.373260
583.323242	1099.512573	13931.920898	6926.708008	45.409988
583.665283	1098.265015	13851.415039	6892.466797	45.433495
584.007324	1100.028687	13781.985352	6849.666016	45.337143
584.349304	1102.007446	13709.204102	6808.370605	45.262745
584.691284	1102.308472	13636.271484	6775.441895	45.262089
585.033142	1102.351685	13574.391602	6744.620605	45.239342
585.374939	1104.566895	13519.954102	6714.379883	45.184361
585.716736	1107.836060	13466.011719	6689.365723	45.164673
586.058411	1106.567139	13411.962891	6662.868652	45.153378
586.400085	1110.137451	13364.902344	6639.510742	45.120190
586.741760	1109.212769	13321.413086	6623.938965	45.157513
587.083374	1109.234253	13313.434570	6613.120605	45.098293
587.424988	1108.954590	13301.734375	6600.516113	45.039455
587.766541	1107.018799	13296.334961	6596.989258	45.039200
588.107971	1106.717773	13323.178711	6601.591797	44.979263
588.449341	1105.964966	13351.696289	6610.517090	44.950783
588.790710	1102.932373	13396.068359	6627.659668	44.941566
589.132080	1100.415894	13431.727539	6646.629395	44.976669
589.473267	1097.619873	13485.625977	6672.159668	44.999496
589.814514	1098.308105	13539.355469	6688.312500	44.931946
590.155762	1094.866943	13599.190430	6708.186035	44.891029
590.496948	1095.662720	13625.881836	6723.994141	44.918064
590.838013	1093.791504	13636.012695	6735.049805	44.978146
591.179077	1093.425903	13644.377930	6745.846680	45.035793
591.520081	1093.124756	13635.905273	6744.254883	45.054844
591.861023	1092.909668	13604.050781	6730.576172	45.061172
592.201965	1094.049683	13567.380859	6713.498535	45.051708
592.542847	1094.350708	13520.362305	6695.323730	45.074585
592.883606	1094.350586	13474.616211	6668.654297	45.025719
593.224365	1093.812988	13432.461914	6649.662598	45.028023
593.565125	1095.038940	13414.565430	6648.522949	45.078712
593.905823	1093.662354	13405.166016	6650.953125	45.139011
594.246521	1093.640991	13429.277344	6659.921387	45.123573
594.587097	1095.813232	13479.755859	6678.332520	45.078693
594.927612	1095.060425	13530.147461	6695.990723	45.041344
595.268127	1098.501831	13617.537109	6737.114258	45.040310
595.608582	1096.738159	13737.702148	6801.208008	45.126858
595.948975	1097.361816	13919.186523	6883.648438	45.128418
596.289307	1097.921021	14138.355469	6981.961426	45.121506
596.629700	1097.920898	14373.543945	7094.319824	45.168495
596.969971	1098.695190	14583.634766	7187.384766	45.151775
597.310242	1095.791748	14748.256836	7257.887695	45.135406
597.650391	1097.017700	14833.452148	7300.689453	45.162170
597.990540	1098.157715	14878.662109	7317.874512	45.134174
598.330627	1096.910278	14868.209961	7309.895020	45.115456
598.670654	1098.071655	14827.321289	7290.365723	45.102928
599.010620	1096.802612	14715.005859	7238.208984	45.097038
599.350525	1097.211182	14560.815430	7161.103027	45.039139
599.690491	1095.447510	14334.487305	7061.198242	45.061810
600.030334	1095.963745	14053.934570	6934.149902	45.054787
600.370178	1098.437134	13753.231445	6792.841797	44.998005
600.710022	1097.920898	13462.032227	6662.330078	45.004520
601.049683	1100.523438	13202.603516	6548.101563	45.013569
601.389343	1100.222290	13015.827148	6456.606445	44.952686
601.728943	1098.458618	12878.240234	6394.340820	44.957390
602.068542	1099.340454	12808.490234	6369.456055	45.008526
602.408081	1099.555542	12813.306641	6370.423340	44.997265
602.747498	1096.587402	12897.833984	6409.718750	45.021782
603.087036	1097.426270	13028.324219	6472.048828	45.047928
603.426453	1096.200317	13228.691406	6554.124512	44.986015
603.765869	1096.049683	13460.613281	6661.599609	45.012100
604.105103	1095.404419	13732.733398	6786.884277	45.037048
604.444336	1095.038940	14025.156250	6912.210938	44.989319
604.783569	1092.694580	14310.224609	7037.237305	44.974689
605.122681	1093.339722	14537.800781	7139.056152	44.968082
605.461792	1093.898926	14714.596680	7214.958984	44.939404
605.800842	1091.619141	14821.641602	7256.060547	44.897533
606.139954	1091.188965	14841.731445	7267.587891	44.917492
606.478943	1092.458008	14791.166016	7247.220215	44.929508
606.817932	1092.909668	14669.818359	7189.687012	44.905491
607.156799	1096.307861	14492.224609	7113.181641	44.915730
607.495605	1098.050049	14283.812500	7010.998047	44.843430
607.834412	1097.770386	14040.190430	6897.349609	44.810623
608.173157	1099.641602	13796.268555	6791.680176	44.831108
608.511841	1100.394409	13598.674805	6698.743652	44.792957
608.850464	1098.394165	13492.187500	6644.608887	44.749939
609.189148	1099.856567	13428.931641	6616.711426	44.746704
609.527710	1100.674072	13402.199219	6604.259277	44.739044
609.866211	1099.684692	13397.660156	6599.032715	44.717506
610.204712	1098.544800	13401.832031	6590.708984	44.639812
610.543091	1097.619873	13421.490234	6593.698730	44.597023
610.881409	1095.705566	13409.467773	6584.708008	44.576164
611.219788	1093.963623	13372.667969	6571.545410	44.610424
611.558044	1093.812988	13309.347656	6543.240723	44.610634
611.896301	1091.705078	13199.097656	6492.997070	44.611523
612.234436	1092.737671	13027.894531	6421.698242	44.649269
612.572693	1094.694824	12793.499023	6322.073242	44.683014
612.910767	1094.221558	12539.918945	6211.651367	44.710510
613.248840	1094.178589	12277.156250	6091.679688	44.688465
613.586792	1096.888550	12025.425781	5978.482910	44.668324
613.924805	1098.695190	11788.512695	5877.674316	44.705898
614.262695	1099.727661	11571.411133	5779.554688	44.690304
614.600525	1101.254761	11383.238281	5693.307617	44.661156
614.938293	1102.953979	11231.972656	5623.858398	44.633190
615.276123	1103.040039	11102.236328	5562.172852	44.594913
615.613892	1100.824707	10995.621094	5511.156250	44.572227
615.951538	1099.362183	10904.834961	5466.978516	44.542637
616.289185	1099.835205	10831.686523	5431.791016	44.513176
616.626770	1097.641479	10767.162109	5397.679199	44.470020
616.964294	1097.727417	10728.683594	5381.269043	44.476803
617.301819	1096.781128	10697.540039	5367.116699	44.479145
617.639221	1097.619873	10677.108398	5355.545410	44.448364
617.976624	1097.211060	10657.708008	5348.297363	44.465118
618.313965	1096.243286	10649.468750	5349.093262	44.517426
618.651306	1096.028198	10634.735352	5344.598145	44.540310
618.988525	1094.178589	10620.928711	5341.586914	44.584023
619.325684	1097.297363	10602.753906	5331.198242	44.541790
619.662964	1099.921387	10589.075195	5327.219238	44.548733
620.000000	1099.813721	10570.235352	5318.852539	44.549641
620.337097	1098.974854	10547.738281	5309.411133	44.560715
620.674133	1097.942505	10512.743164	5294.054199	44.569309
621.011047	1097.017578	10483.148438	5280.030762	44.565895
621.347961	1096.092773	10448.735352	5263.060547	44.553909
621.684875	1094.737793	10412.816406	5252.112793	44.616230
622.021729	1095.813232	10378.791016	5232.863770	44.565990
622.358521	1095.684204	10344.764648	5208.624512	44.468643
622.695313	1097.103638	10306.308594	5195.030762	44.498165
623.031982	1096.824097	10284.176758	5187.180176	44.521595
623.368652	1095.296997	10261.485352	5173.845703	44.495583
623.705261	1095.963745	10251.548828	5169.779785	44.495419
624.041748	1097.469238	10251.785156	5168.769531	44.474106
624.378296	1099.340454	10255.355469	5173.414551	44.496151
624.714722	1099.426636	10275.638672	5179.910645	44.468063
625.051147	1101.190186	10313.256836	5194.815430	44.437645
625.387512	1100.501953	10365.477539	5217.398926	44.435055
625.723877	1098.609253	10452.929688	5249.510742	44.374165
626.060120	1099.770630	10549.522461	5295.860352	44.404232
626.396301	1098.716797	10676.248047	5342.984375	44.314838
626.732483	1099.362183	10795.445313	5399.120605	44.345314
627.068604	1102.287109	10906.147461	5449.147949	44.338257
627.404724	1102.631348	11006.245117	5492.336426	44.324280
627.740662	1102.609863	11092.771484	5525.953125	44.276993
628.076721	1104.029175	11155.273438	5544.256836	44.175900
628.412720	1104.889526	11191.256836	5555.140137	44.121441
628.748596	1103.620605	11195.687500	5561.291504	44.170052
629.084473	1105.943481	11178.266602	5544.772949	44.069569
629.420227	1107.277100	11111.333984	5523.845703	44.147774
629.755981	1106.911377	11027.991211	5487.712402	44.156490
630.091675	1108.180298	10910.987305	5441.426758	44.204144
630.427307	1110.503174	10777.874023	5380.752930	44.171780
630.762939	1106.266113	10644.050781	5315.109863	44.128105
631.098450	1105.362671	10515.711914	5260.329102	44.153156
631.434021	1104.781982	10400.235352	5210.387695	44.167889
631.769470	1103.685059	10291.620117	5166.231445	44.216095
632.104980	1102.846313	10191.930664	5127.151367	44.276245
632.440308	1102.029053	10108.780273	5089.749023	44.274788
632.775635	1101.813965	10030.147461	5063.272461	44.369514
633.110901	1099.211426	9979.409180	5034.451660	44.314785
633.446106	1098.480103	9941.985352	5018.041016	44.321354
633.781250	1099.641602	9918.605469	5004.017578	44.272503
634.116394	1099.232910	9898.128906	4991.951660	44.240990
634.451538	1102.158081	9885.289063	4987.930176	44.241306
634.786560	1102.867798	9865.500977	4971.605957	44.150410
635.121582	1102.502075	9830.788086	4956.421387	44.154366
635.456543	1102.308594	9802.785156	4947.495117	44.195126
635.791443	1103.534424	9758.627930	4928.094727	44.188549
636.126221	1104.502441	9707.848633	4906.092285	44.187344
636.461060	1105.190674	9659.993164	4877.916016	44.100670
636.795776	1107.190918	9596.716797	4854.235840	44.137272
637.130493	1105.943481	9518.750000	4818.468262	44.129444
637.465210	1103.878784	9428.092773	4777.774414	44.135044
637.799805	1102.028931	9344.297852	4738.242676	44.116665
638.134399	1101.233276	9254.458984	4699.141113	44.128643
638.468933	1101.254761	9165.372070	4665.373047	44.197250
638.803345	1101.125610	9083.641602	4631.455078	44.225773
639.137756	1100.050293	9002.297852	4592.396484	44.194340
639.472168	1100.394409	8935.709961	4560.672363	44.162586
639.806519	1100.007324	8868.152344	4527.120117	44.117519
640.140747	1096.695190	8796.789063	4501.332031	44.215523
640.474976	1094.071167	8722.736328	4469.951172	44.252563
640.809204	1094.759277	8651.587891	4443.001953	44.307510
641.143372	1095.899292	8599.172852	4416.633301	44.257137
641.477478	1095.770264	8539.037109	4393.490723	44.304749
641.811462	1095.469116	8489.138672	4372.412598	44.320934
642.145447	1096.630615	8438.615234	4351.915527	44.337944
642.479370	1098.974976	8393.835938	4330.085449	44.292969
642.813293	1100.846069	8347.163086	4310.491211	44.293468
643.147095	1100.846191	8300.597656	4293.865234	44.349018
643.480957	1101.039673	8259.368164	4277.519043	44.374596
643.814758	1104.373413	8223.168945	4260.807617	44.339439
644.148438	1105.362793	8195.423828	4247.687988	44.320145
644.482117	1105.986450	8168.646973	4233.234375	44.278610
644.815735	1103.061401	8131.695801	4221.856445	44.372704
645.149292	1102.717163	8109.973145	4209.962402	44.343250
645.482788	1101.899902	8092.078125	4197.293945	44.282047
645.816223	1099.942749	8076.871582	4189.723145	44.285679
646.149658	1099.706177	8067.816895	4186.970215	44.305611
646.483032	1100.502075	8075.860840	4190.992188	44.305824
646.816345	1100.093384	8077.473633	4189.250488	44.273884
647.149658	1098.200684	8077.538574	4189.486816	44.291969
647.482849	1096.200317	8084.291992	4191.487305	44.293739
647.816101	1096.824097	8078.957520	4189.142578	44.289021
648.149231	1098.308105	8086.378418	4192.842285	44.283100
648.482239	1100.523560	8096.530762	4195.745605	44.242695
648.815247	1100.953613	8095.196777	4195.853027	44.249241
649.148254	1099.426636	8089.260742	4199.229492	44.347301
649.481201	1100.222412	8077.538574	4197.358887	44.388649
649.814087	1101.082764	8073.194824	4198.412598	44.424553
650.146973	1098.630859	8060.848633	4189.035645	44.388222
650.479736	1098.931885	8054.697266	4189.400879	44.430321
650.812500	1101.921509	8054.976563	4190.433594	44.419498
651.145203	1101.104248	8043.039551	4187.121094	44.454704
651.477844	1100.803101	8051.212402	4186.304199	44.393085
651.810486	1097.705933	8047.298340	4183.163574	44.397678
652.143005	1096.716675	8036.156250	4182.883789	44.472858
652.475525	1096.716675	8036.543457	4183.959473	44.485874
652.807922	1097.426392	8025.961426	4180.001953	44.491016
653.140381	1097.168213	8024.478027	4173.656738	44.411015
653.472717	1095.383057	7998.733887	4165.483887	44.472618
653.805115	1095.727173	7972.062988	4156.234863	44.507828
654.137390	1093.770020	7941.564453	4141.072266	44.500492
654.469543	1093.296753	7907.625000	4121.392090	44.437180
654.801758	1095.619629	7876.094238	4107.476074	44.419552
655.133850	1096.867065	7834.734375	4091.001465	44.437420
655.465881	1097.490723	7790.793457	4075.494385	44.492290
655.797974	1099.082397	7760.961426	4062.202393	44.478745
656.129944	1099.921143	7724.742188	4053.728027	44.586967
656.461853	1098.114502	7702.911133	4047.297119	44.652130
656.793762	1096.974487	7684.500000	4043.662598	44.731335
657.125610	1097.189575	7687.489258	4046.093018	44.746117
657.457397	1096.845581	7706.740234	4055.878906	44.766724
657.789124	1098.265137	7744.443359	4077.644775	44.828465
658.120789	1096.652100	7805.526367	4108.724121	44.896835
658.452393	1095.963867	7895.795410	4153.052246	44.958294
658.783997	1096.393921	8007.443848	4207.230957	45.012508
659.115540	1099.706177	8137.502930	4267.023438	45.004387
659.447083	1099.082520	8251.990234	4318.492188	45.008404
659.778503	1097.383301	8362.735352	4367.487793	45.009583
660.109924	1099.276001	8457.262695	4409.255859	44.984859
660.441284	1099.770630	8524.668945	4444.852051	45.052219
660.772522	1100.394287	8568.072266	4462.918457	45.027710
661.103760	1101.082520	8577.277344	4472.446777	45.094654
661.434998	1102.028809	8569.641602	4469.371094	45.092621
661.766113	1104.007690	8515.679688	4448.981445	45.131161
662.097229	1104.029419	8421.323242	4408.417480	45.158607
662.428345	1104.717651	8297.867188	4355.141602	45.187771
662.759277	1102.179565	8148.234863	4288.058105	45.215065
663.090332	1102.609741	8003.937988	4222.759766	45.210861
663.421204	1101.942993	7856.973145	4154.730469	45.192802
663.752075	1102.846313	7713.859375	4090.915771	45.198357
664.082886	1102.867798	7589.284668	4031.574951	45.151382
664.413635	1100.889160	7478.367676	3986.149414	45.241394
664.744324	1099.233032	7379.688965	3943.327393	45.284836
665.075012	1097.899536	7287.720215	3902.031982	45.302319
665.405640	1097.963989	7214.679199	3871.856201	45.349373
665.736206	1098.394165	7161.597168	3847.530518	45.341320
666.066772	1095.727051	7110.623047	3828.066162	45.426208
666.397278	1096.867065	7076.941895	3815.913818	45.468445
666.727661	1095.555054	7038.851074	3808.235107	45.642693
667.058044	1097.469238	7009.146973	3799.589111	45.708172
667.388306	1097.512329	6988.822266	3791.610107	45.730026
667.718567	1098.673828	6970.820313	3787.372803	45.787327
668.048828	1099.899780	6964.669922	3778.575684	45.674011
668.378967	1102.889404	6962.884277	3773.843750	45.579464
668.709167	1103.921875	6958.732910	3772.725586	45.583088
669.039246	1101.878540	6962.690918	3775.241943	45.614208
669.369263	1102.416260	6956.776367	3775.241943	45.655300
669.699341	1104.846558	6948.473633	3776.059326	45.711559
670.029236	1105.083130	6938.924805	3772.080566	45.715973
670.359131	1107.147827	6934.085449	3760.251465	45.531696
670.688965	1106.502686	6921.546875	3752.400879	45.500916
671.018738	1105.384277	6902.124512	3746.958740	45.570000
671.348511	1103.878662	6880.379883	3735.903809	45.564350
671.678223	1104.308716	6849.687500	3726.568848	45.641205
672.007813	1102.867676	6814.112793	3712.739746	45.697079
672.337341	1100.157715	6783.227051	3696.307617	45.682178
672.666992	1102.201050	6750.986328	3677.445068	45.589344
672.996460	1102.115112	6716.401855	3658.475098	45.533119
673.325867	1100.673950	6688.054199	3641.978271	45.482929
673.655273	1097.275635	6651.426270	3620.384277	45.427444
673.984619	1095.382935	6617.271484	3605.307617	45.454102
674.314026	1096.415283	6586.729492	3592.359131	45.460854
674.643250	1098.243652	6561.845215	3578.228271	45.391022
674.972412	1098.802856	6540.853516	3566.614014	45.347080
675.301514	1098.243652	6515.022949	3555.731201	45.368057
675.630676	1097.404663	6495.687012	3544.611572	45.333069
675.959778	1100.243774	6470.328125	3535.857666	45.355221
676.288757	1099.189941	6442.131348	3529.641602	45.489021
676.617737	1098.265137	6422.817383	3515.855225	45.404572
676.946594	1098.566284	6406.148438	3505.036133	45.340225
677.275513	1100.673950	6395.158203	3503.617188	45.385788
677.604309	1101.899902	6392.383301	3503.875000	45.401806
677.933044	1100.781494	6398.320313	3505.595459	45.394928
678.261780	1100.803101	6410.879883	3508.778809	45.347286
678.590393	1099.340576	6432.216797	3514.886963	45.295380
678.919067	1101.254761	6468.823242	3525.748535	45.169312
679.247620	1100.523315	6513.860840	3541.449463	45.090969
679.576111	1099.125366	6559.737305	3562.355469	45.109047
679.904541	1098.179077	6620.088867	3580.659180	44.956909
680.232971	1098.006958	6676.332520	3612.382813	45.074028
680.561401	1097.490845	6732.962891	3633.697754	45.004341
680.889709	1097.082153	6787.829590	3654.775635	44.944771
681.217957	1096.350830	6834.244141	3673.874268	44.921074
681.546143	1094.006470	6873.323730	3688.155518	44.886772
681.874390	1095.318481	6900.359375	3699.791992	44.865723
682.202454	1096.393799	6914.985840	3709.535156	44.910202
682.530579	1096.157227	6905.263672	3707.363037	44.950214
682.858521	1099.017700	6874.012695	3699.663086	45.032860
683.186523	1099.426514	6833.169922	3677.853760	44.969353
683.514465	1099.641602	6772.193848	3655.678955	45.059742
683.842346	1100.157715	6708.701660	3623.158447	44.984951
684.170166	1101.727905	6635.251465	3594.359131	45.046005
684.497925	1100.673950	6558.102051	3563.430664	45.126694
684.825623	1100.609375	6474.780762	3526.995850	45.149033
685.153320	1103.814087	6395.049805	3490.088135	45.098614
685.481018	1100.932007	6318.846680	3452.750244	45.071999
685.808533	1097.920898	6247.827637	3420.466553	45.098789
686.136047	1096.910034	6188.508301	3391.387451	45.063995
686.463623	1094.716309	6143.836426	3367.578125	45.015007
686.791016	1093.898926	6115.273438	3355.706055	45.043587
687.118408	1093.038696	6102.132324	3347.210693	45.001591
687.445740	1093.705566	6096.776855	3344.242188	44.983101
687.772949	1094.221558	6093.271484	3337.596191	44.876019
688.100220	1095.705688	6093.701660	3332.864258	44.761112
688.427429	1093.985107	6090.109375	3332.778320	44.810600
688.754517	1094.995972	6091.464355	3329.724365	44.726162
689.081604	1098.157593	6083.226563	3325.938965	44.689075
689.408630	1102.158203	6065.138672	3317.206787	44.631420
689.735657	1102.394653	6042.167480	3309.313232	44.676517
690.062622	1104.502441	6012.873535	3299.741943	44.724400
690.389465	1104.244385	5970.202637	3278.836182	44.689899
690.716248	1105.685425	5911.765137	3254.747559	44.715488
691.043091	1103.599121	5852.058105	3227.926758	44.737202
691.369812	1101.125732	5789.728027	3204.590576	44.863365
691.696533	1100.910645	5724.429688	3178.695068	44.939457
692.023132	1104.050781	5671.025391	3151.594482	44.833698
692.349670	1102.287109	5605.705078	3127.741943	44.975945
692.676270	1101.039673	5552.150391	3106.169434	45.047852
693.002747	1098.523315	5502.918457	3083.263428	45.062717
693.329163	1099.146973	5454.503906	3061.690674	45.060455
693.655518	1098.566284	5414.843262	3040.269287	44.985600
693.981873	1098.286743	5380.150879	3023.127197	44.953327
694.308167	1097.318726	5352.255371	3009.663086	44.944134
694.634399	1099.340576	5318.573730	2994.113037	44.907978
694.960571	1100.588013	5295.774902	2980.799316	44.818295
695.286743	1100.222412	5279.320801	2970.196289	44.745865
695.612854	1098.652222	5266.910645	2962.947754	44.726009
695.938904	1098.630737	5266.072266	2957.893555	44.614014
696.264832	1098.845825	5277.858887	2960.990479	44.559433
696.590820	1100.846191	5295.279785	2968.045166	44.516117
696.916687	1100.394409	5332.553223	2983.853760	44.503513
697.242554	1100.114868	5381.053711	3002.414795	44.436512
697.568359	1099.856689	5452.417480	3034.827881	44.455929
697.894043	1100.738525	5550.967285	3072.789307	44.313473
698.219788	1099.534058	5673.821777	3124.322510	44.264565
698.545349	1101.792358	5811.623535	3178.543945	44.093971
698.870972	1102.136597	5945.833984	3235.045898	44.034733
699.196533	1102.846313	6066.235840	3287.116943	44.007637
699.521973	1101.211670	6169.517578	3327.078857	43.917381
699.847412	1101.125488	6241.720215	3358.437500	43.911495
700.172852	1103.534424	6290.349609	3379.450684	43.878876
700.498169	1104.201172	6309.813965	3386.935791	43.851410
700.823486	1103.749512	6299.876953	3378.913086	43.785755
701.148682	1104.244263	6248.881348	3353.641357	43.723141
701.473816	1103.663574	6161.343750	3314.152588	43.705589
701.799072	1104.351685	6041.027832	3259.887695	43.663712
702.124146	1100.867554	5895.203125	3202.590088	43.837624
702.449158	1100.544922	5739.484863	3134.366943	43.842388
702.774109	1103.018433	5585.810059	3065.390381	43.775669
703.099060	1102.674316	5439.813965	3004.156982	43.841858
703.424011	1102.502197	5303.388672	2943.827148	43.831818
703.748840	1100.630981	5186.169434	2889.734375	43.791126
704.073608	1099.426514	5079.683105	2838.609863	43.695255
704.398315	1100.846069	4983.585449	2798.303711	43.718044
704.723022	1103.513062	4910.414551	2764.815674	43.639233
705.047668	1101.942993	4846.686523	2736.252930	43.642773
705.372253	1101.770996	4791.173828	2708.356934	43.545963
705.696716	1102.953857	4744.007324	2680.052246	43.314342
706.021240	1102.674316	4704.539551	2663.405029	43.331181
706.345764	1097.641357	4671.353027	2650.930664	43.464314
706.670044	1099.942749	4651.285645	2641.832764	43.417099
706.994446	1097.189697	4638.187500	2633.853271	43.396343
707.318665	1095.318604	4627.347168	2629.659180	43.440773
707.642883	1094.587158	4623.282227	2622.927002	43.311756
707.967102	1093.038574	4619.604980	2620.561035	43.314724
708.291260	1092.113770	4615.281250	2617.463867	43.294849
708.615295	1095.447510	4613.969727	2617.011963	43.244419
708.939331	1096.630493	4619.562012	2620.862061	43.265999
709.263367	1096.415527	4626.874512	2626.562012	43.341290
709.587280	1097.641479	4638.832520	2630.390381	43.283432
709.911194	1098.888794	4662.556152	2637.638916	43.178837
710.234985	1098.071533	4684.344238	2646.457275	43.175350
710.558716	1101.104248	4710.605469	2661.146973	43.220451
710.882568	1104.373413	4740.694824	2671.191162	43.087990
711.206177	1105.212158	4770.397949	2689.365479	43.221638
711.529785	1105.319702	4803.110840	2700.571045	43.140656
711.853394	1104.459351	4831.093262	2712.465088	43.149014
712.176880	1103.857178	4846.105469	2719.541260	43.174156
712.500427	1102.394653	4857.935059	2724.445313	43.190872
712.823792	1100.458984	4866.709961	2729.112549	43.243362
713.147217	1100.351440	4868.839355	2729.327637	43.226257
713.470520	1099.878052	4855.547363	2724.789063	43.265549
713.793823	1100.437378	4835.544922	2712.658691	43.163986
714.117004	1100.523438	4811.112305	2697.452393	43.037075
714.440247	1098.200684	4783.754395	2682.956055	42.999111
714.763367	1098.415771	4748.201172	2667.556396	42.992683
715.086365	1097.232788	4712.841797	2655.232178	43.090927
715.409485	1096.781128	4687.011230	2647.016357	43.179276
715.732361	1097.275879	4667.696777	2641.832764	43.259800
716.055298	1097.405029	4649.586426	2633.745850	43.250629
716.378174	1100.308472	4628.573242	2624.518555	43.199993
716.700928	1100.760132	4606.527832	2615.893799	43.218315
717.023804	1101.340820	4585.686035	2605.397949	43.166134
717.346558	1101.728027	4558.823242	2598.278809	43.289257
717.669189	1098.609253	4527.421387	2581.954346	43.261196
717.991760	1097.469238	4488.470215	2567.694580	43.356678
718.314392	1096.587402	4450.594238	2550.853760	43.359074
718.636902	1099.577026	4408.395508	2534.572266	43.368813
718.959351	1100.157715	4350.775391	2506.826904	43.273903
719.281738	1098.566284	4297.457031	2479.726807	43.176235
719.604065	1098.781250	4234.267090	2456.820557	43.311928
719.926453	1097.727417	4175.249023	2431.871338	43.351246
720.248718	1095.963745	4124.210449	2407.051025	43.295261
720.570923	1096.028198	4073.709229	2383.693359	43.243889
720.893066	1093.705322	4031.316406	2362.572510	43.193844
721.215088	1096.178833	3985.740723	2347.323242	43.298756
721.537170	1098.501709	3947.241943	2331.235352	43.272938
721.859192	1100.587891	3913.947754	2316.287354	43.211658
722.181152	1099.103882	3881.728271	2298.456787	43.101501
722.503052	1100.480469	3859.360107	2289.208252	43.087337
722.824951	1102.652832	3835.615479	2280.174805	43.085915
723.146790	1103.190552	3823.097412	2271.313477	42.947166
723.468506	1104.330444	3809.010010	2264.173096	42.882809
723.790161	1104.480957	3791.265625	2260.989990	43.044350
724.111816	1107.599609	3779.392822	2259.892822	43.128082
724.433472	1109.083618	3764.789063	2257.871338	43.257343
724.755005	1108.933105	3761.132813	2255.741943	43.239914
725.076477	1107.642578	3755.927979	2254.924561	43.321690
725.397888	1106.309082	3752.292969	2254.645020	43.399204
725.719299	1106.760864	3754.831055	2255.290283	43.372314
726.040710	1105.642456	3757.368652	2258.559570	43.477985
726.361938	1102.781738	3763.111572	2261.656494	43.561317
726.683167	1101.319336	3769.628174	2266.625000	43.672070
727.004395	1098.523315	3782.791260	2273.163330	43.760162
727.325500	1098.888916	3802.943848	2279.680420	43.667439
727.646667	1097.361816	3818.666504	2287.982422	43.751831
727.967651	1096.738037	3837.765625	2296.757813	43.779922
728.288635	1095.533569	3854.434570	2308.586914	43.968719
728.609558	1096.609009	3870.242920	2314.243896	43.900349
728.930481	1097.748901	3888.051514	2319.965088	43.802280
729.251282	1097.533813	3895.902100	2329.514648	44.024975
729.572021	1097.856567	3901.946045	2331.601074	43.998047
729.892761	1101.147217	3904.398193	2333.235352	43.952118
730.213440	1103.082886	3907.000244	2336.096191	43.974663
730.534119	1103.125854	3909.043701	2338.547852	44.029156
730.854675	1105.298340	3910.914795	2339.580322	43.993256
731.175171	1103.986328	3916.764893	2340.418945	43.957695
731.495605	1106.180176	3921.561035	2341.580566	43.880402
731.816101	1105.470215	3924.852295	2342.311768	43.869244
732.136475	1105.083130	3927.583008	2344.204102	43.901539
732.456787	1101.405273	3927.024170	2346.613281	44.068504
732.777039	1100.803101	3935.347900	2349.151367	44.040520
733.097229	1101.018066	3941.176758	2354.270264	44.126133
733.417480	1098.867310	3944.983398	2356.442383	44.185654
733.737549	1097.125122	3943.112305	2353.409668	44.142311
734.057617	1098.179077	3932.616455	2345.580811	44.008793
734.377563	1095.189331	3911.086670	2339.364990	44.183983
734.697510	1096.071289	3878.867432	2327.858398	44.264366
735.017517	1093.770020	3843.358398	2313.533936	44.361691
735.337341	1093.189331	3805.761963	2299.338623	44.465141
735.657166	1093.683960	3767.800537	2285.272461	44.560078
735.976868	1096.243286	3729.903076	2273.141846	44.686813
736.296631	1096.479980	3685.919434	2255.957275	44.777153
736.616272	1096.609009	3646.989746	2240.557373	44.854019
736.935852	1094.200195	3613.695068	2226.362061	44.936066
737.255371	1092.995728	3579.648193	2215.156494	45.127369
737.574829	1092.716187	3553.386719	2208.273682	45.335510
737.894348	1093.167847	3539.879150	2202.681641	45.347145
738.213745	1090.952515	3535.707031	2203.090332	45.490780
738.533081	1090.780396	3536.954102	2208.531982	45.693874
738.852356	1092.436523	3542.008545	2209.972900	45.621700
739.171570	1091.425659	3550.095947	2215.608154	45.723186
739.490784	1090.414673	3554.031982	2217.479248	45.748363
739.809937	1089.769409	3559.795898	2219.565430	45.740242
740.129028	1086.263550	3556.870850	2219.952393	45.887051
740.447998	1089.360840	3549.062744	2219.307373	45.938351
740.767029	1089.791016	3542.073242	2219.328857	46.060680
741.085999	1090.866333	3529.534180	2213.973145	46.054108
741.404846	1093.941895	3505.854004	2206.682129	46.135189
741.723633	1096.566040	3479.054688	2196.465820	46.166000
742.042358	1097.619995	3447.330566	2180.571289	46.088711
742.361145	1098.308105	3413.713379	2166.784912	46.146427
742.679810	1098.630737	3378.698242	2155.213379	46.339973
742.998413	1098.071411	3342.435303	2139.039307	46.381424
743.316956	1096.544434	3307.721191	2130.199463	46.746830
743.635498	1100.953491	3277.159180	2117.875244	46.729122
743.953979	1099.835205	3247.563477	2110.562744	47.060307
744.272400	1103.276489	3222.377930	2097.980469	46.939892
744.590698	1101.018066	3197.170166	2092.065674	47.279373
744.909058	1098.652222	3172.715576	2084.000244	47.508095
745.227356	1099.361938	3152.347656	2082.301025	47.878513
745.545471	1099.835083	3136.452881	2077.999512	48.028866
745.863586	1101.706299	3118.794678	2076.128174	48.308338
746.181702	1101.835449	3099.072021	2071.138184	48.532196
746.499756	1105.083130	3085.199463	2071.310303	48.796486
746.817810	1108.782593	3073.305420	2070.019775	48.929806
747.135742	1106.696411	3063.347412	2070.794189	49.272854
747.453613	1107.449097	3057.948975	2066.277588	49.158089
747.771423	1105.448730	3051.646729	2071.804932	49.653542
748.089233	1108.997559	3048.893799	2076.450928	49.871399
748.406982	1110.008545	3053.905273	2081.505371	49.976772
748.724609	1109.685913	3058.378906	2083.161377	49.955303
749.042236	1107.018799	3059.346924	2090.323730	50.365761
749.359863	1104.480957	3064.616455	2097.786865	50.675369
749.677429	1103.362427	3072.724854	2101.808838	50.698967
749.994873	1101.577393	3079.026611	2108.497559	50.920155
750.312256	1100.243896	3083.586182	2113.573730	51.092030
750.629639	1103.491699	3088.361084	2120.864746	51.256424
750.946960	1104.222900	3091.178711	2129.812012	51.616100
751.264282	1104.782104	3090.511719	2133.640625	51.812618
751.581482	1103.943237	3088.726563	2139.232666	52.161331
751.898621	1101.728027	3083.779785	2145.254883	52.648819
752.215698	1100.243774	3078.725586	2154.245361	53.273251
752.532715	1102.738770	3077.456787	2161.773193	53.629654
752.849792	1101.534424	3074.101318	2169.838623	54.158073
753.166748	1101.620483	3069.283447	2181.775635	54.895332
753.483643	1101.469849	3068.767090	2189.152588	55.288174
753.800476	1100.501953	3066.680664	2199.799316	55.910347
754.117310	1095.877808	3065.132568	2209.478027	56.549324
754.434082	1092.780518	3060.593994	2221.866699	57.377705
754.750732	1091.791138	3060.551025	2234.943604	58.064594
755.067383	1092.264404	3061.110352	2242.880127	58.441124
755.383911	1093.511963	3057.410889	2250.644287	58.920158
755.700562	1093.425903	3055.905273	2256.838867	59.282814
756.016968	1093.382935	3049.216309	2266.646240	59.987896
756.333435	1095.490601	3043.925537	2274.195557	60.494961
756.649780	1097.447754	3042.161621	2283.250488	60.975693
756.966064	1096.996094	3042.914795	2295.574707	61.594486
757.282410	1097.017578	3046.441650	2306.371826	62.036488
757.598633	1096.630493	3049.990723	2318.050537	62.529175
757.914795	1100.329956	3059.734131	2334.869629	63.005871
758.230896	1099.577148	3072.273438	2348.011475	63.285683
758.546936	1096.673706	3082.403320	2365.884521	63.916599
758.862976	1095.146606	3093.996094	2386.381592	64.598907
759.178894	1094.221558	3103.352295	2404.040039	65.193291
759.494812	1095.296997	3115.203125	2423.590576	65.760162
759.810669	1094.931274	3124.688232	2441.635742	66.348068
760.126526	1094.027832	3134.172852	2457.014160	66.808304
760.442261	1093.662354	3138.109131	2475.231445	67.576675
760.757935	1092.414917	3141.571777	2492.222900	68.311417
761.073608	1095.877808	3145.593750	2506.031006	68.797501
761.389160	1094.006592	3143.851563	2515.967773	69.369209
761.704712	1095.576538	3141.012451	2530.291992	70.142281
762.020203	1098.351074	3145.658447	2548.444824	70.829315
762.335571	1100.458862	3166.349365	2572.383301	71.248901
762.650940	1102.394653	3207.171631	2617.571777	71.987541
762.966370	1100.329956	3283.697021	2686.956787	72.668808
763.281677	1100.867676	3390.075928	2775.935303	73.172356
763.596863	1098.243652	3507.316162	2875.474365	73.772408
763.911987	1100.415894	3602.295898	2959.226807	74.296570
764.227112	1102.867798	3678.735352	3026.697510	74.686668
764.542236	1103.319458	3740.076416	3085.564941	75.177406
764.857178	1103.685059	3780.877441	3129.226563	75.659172
765.172119	1102.609863	3804.622070	3163.832764	76.284737
765.487061	1099.082397	3818.322754	3184.932129	76.707077
765.801880	1095.899292	3806.385742	3191.470947	77.313499
766.116760	1094.608643	3769.692871	3167.854736	77.502083
766.431458	1094.243042	3686.671875	3113.073486	77.874100
766.746155	1093.124634	3573.044678	3036.612549	78.368980
767.060791	1095.296997	3442.340576	2947.591064	78.920311
767.375427	1094.716309	3328.520264	2865.193604	79.258400
767.689941	1093.232300	3229.862549	2794.088379	79.604599
768.004395	1090.027466	3144.906006	2735.672607	80.084793
768.318848	1087.769165	3074.574463	2687.064209	80.495811
768.633179	1088.134888	3014.631836	2645.403076	80.834190
768.947632	1090.457764	2957.291260	2611.205322	81.461342
769.261841	1091.188965	2908.618408	2578.211914	81.820122
769.576111	1091.877197	2861.257813	2552.810791	82.567513
769.890259	1093.038818	2827.167725	2531.539307	82.952339
770.204285	1094.501221	2789.485596	2511.106934	83.576332
770.518433	1092.630127	2756.814697	2491.297852	84.045227
770.832458	1091.081543	2725.714111	2477.124023	84.792297
771.146362	1090.844849	2697.301758	2465.058105	85.543114
771.460205	1091.619263	2670.524170	2449.937744	86.029152
771.774109	1093.490356	2651.468262	2436.989990	86.233551
772.087952	1094.608765	2632.154053	2424.106934	86.468880
772.401672	1094.888550	2615.657227	2410.104980	86.483658
772.715332	1098.071411	2602.666504	2399.501465	86.497032
773.028992	1098.630737	2589.718506	2387.113037	86.412239
773.342590	1098.049927	2572.082031	2378.703369	86.880974
773.656128	1097.103638	2557.994385	2369.411865	87.091263
773.969604	1099.555664	2543.970947	2362.679688	87.448814
774.283020	1100.200928	2532.851563	2353.345215	87.470337
774.596375	1099.577148	2521.043701	2345.752930	87.668312
774.909729	1100.695557	2507.816162	2340.504883	88.109673
775.223022	1101.900024	2492.523926	2334.783936	88.656891
775.536194	1105.836060	2481.941895	2326.847656	88.729485
775.849304	1105.857544	2466.456055	2319.255127	89.181160
776.162476	1104.674561	2453.142822	2313.684326	89.658005
776.475525	1104.739014	2438.840088	2309.511719	90.305954
776.788513	1105.427246	2430.839111	2301.016113	90.205086
777.101440	1103.857178	2424.859863	2296.521240	90.284760
777.414307	1102.502075	2417.826660	2290.800049	90.342567
777.727173	1100.566406	2414.213379	2289.595459	90.513588
778.039978	1102.781738	2408.384521	2284.971436	90.547424
778.352722	1101.211792	2403.846191	2279.292969	90.438362
778.665405	1098.566284	2402.491455	2278.088867	90.459373
778.977966	1092.823608	2397.759521	2276.238770	90.687607
779.290649	1092.436401	2399.566162	2277.335938	90.648964
779.603149	1092.156860	2396.124756	2278.798584	91.002373
779.915588	1090.328613	2397.006836	2280.626709	91.093437
780.227966	1090.199585	2391.801514	2276.798340	91.164490
780.540405	1090.048950	2385.219971	2273.443115	91.369720
780.852722	1088.307007	2382.596191	2270.776123	91.360504
781.164917	1089.554321	2373.412354	2264.818359	91.541588
781.477173	1089.876953	2365.260742	2259.075684	91.674263
781.789246	1090.737305	2355.926270	2254.107178	91.952263
782.101379	1091.360962	2343.107666	2245.246094	92.181999
782.413452	1092.500977	2335.429199	2236.083496	92.007126
782.725403	1091.683716	2324.244873	2224.426025	91.901512
783.037292	1092.586914	2315.189941	2218.404053	92.083618
783.349182	1094.264648	2301.854980	2205.305420	92.004776
783.661072	1094.049561	2294.843262	2198.552002	91.981033
783.972839	1094.845337	2286.003662	2192.916992	92.185196
784.284546	1096.609009	2271.679443	2182.420898	92.403984
784.596191	1097.211182	2261.699463	2174.484375	92.510437
784.907898	1095.383057	2254.236084	2169.429932	92.681892
785.219421	1096.652100	2247.138428	2164.396973	92.808136
785.530884	1095.189453	2243.331787	2161.213867	92.847755
785.842346	1094.737793	2236.341553	2156.697266	93.023476
786.153748	1096.479858	2227.588135	2155.234619	93.603310
786.465149	1096.845581	2220.232178	2148.287354	93.595718
786.776428	1098.093018	2214.403320	2147.964844	94.048386
787.087646	1100.114746	2210.489014	2148.889648	94.452377
787.398804	1100.028809	2215.650879	2155.492676	94.607651
787.709961	1101.448242	2228.491211	2172.505615	95.032524
788.021057	1103.448486	2243.998535	2190.335938	95.295021
788.332031	1105.255127	2260.581299	2208.875732	95.524590
788.643005	1103.792725	2278.411377	2224.275391	95.391190
788.953918	1105.513306	2290.907715	2236.147949	95.380463
789.264832	1108.137329	2298.671875	2250.902588	95.987579
789.575623	1107.040527	2307.898926	2262.474121	96.217308
789.886353	1104.803589	2315.555664	2269.657959	96.209160
790.197083	1102.480835	2321.470459	2273.937744	96.100647
790.507690	1098.695313	2320.459473	2272.690430	96.090157
790.818359	1099.792236	2312.114258	2260.645752	95.754555
791.128845	1098.394287	2292.391357	2244.923340	96.024445
791.439331	1097.297363	2270.732666	2221.092529	95.769676
791.749756	1095.619629	2247.246338	2198.100586	95.732491
792.060120	1096.092896	2224.662842	2176.850586	95.763466
792.370483	1097.361694	2201.928711	2156.374756	95.875854
792.680786	1093.597778	2184.206055	2138.458496	95.805321
792.990967	1093.619263	2169.795898	2118.649658	95.247414
793.301086	1095.189453	2154.396240	2104.777100	95.315445
793.611267	1093.275269	2141.577393	2094.281006	95.488289
793.921326	1095.254028	2130.070557	2084.430420	95.589546
794.231323	1095.834839	2122.757568	2077.870361	95.628960
794.541260	1097.576782	2120.929443	2069.740479	94.997917
794.851074	1098.308105	2121.144287	2070.901855	95.087929
795.161011	1099.297607	2123.252197	2069.718750	94.771889
795.470764	1099.512573	2126.284912	2075.095703	95.014549
795.780518	1099.598755	2132.049072	2087.635010	95.698189
796.090149	1102.050659	2141.147217	2092.667725	95.334457
796.399780	1099.663208	2146.158447	2101.937744	95.774399
796.709412	1098.458618	2155.600586	2107.035400	95.405991
797.018860	1099.512573	2160.504395	2112.949951	95.517929
797.328308	1100.222412	2166.117920	2119.832275	95.657585
797.637756	1098.953369	2165.515625	2126.134277	96.307640
797.947205	1098.738403	2166.655518	2131.102539	96.670815
798.256470	1097.942505	2161.364502	2128.156250	96.877228
798.565674	1098.243652	2157.278076	2127.188232	97.158745
798.874817	1099.125488	2148.309082	2117.832275	97.095192
799.183960	1098.501831	2141.921387	2104.217773	96.386536
799.493103	1098.480225	2131.447021	2095.721924	96.541504
799.802124	1101.749512	2121.531494	2084.301025	96.349174
800.111084	1102.265503	2105.830811	2072.041504	96.633072
800.419983	1103.319458	2098.023438	2061.846680	96.363060
800.728821	1102.846313	2086.774658	2050.404297	96.303558
801.037659	1104.997070	2080.709473	2040.467896	95.875671
801.346436	1102.781738	2071.482666	2030.875366	95.808067
801.655151	1102.953979	2065.804443	2024.057129	95.664192
801.963745	1103.642090	2057.674316	2013.711792	95.391922
802.272400	1102.201050	2050.490479	2006.227051	95.332291
802.580933	1102.201050	2039.693359	1999.409058	95.702972
802.889404	1100.630981	2028.745972	1991.322144	95.967758
803.197815	1099.082520	2021.282837	1985.558105	96.126144
803.506226	1099.297607	2016.185425	1982.912476	96.371101
803.814575	1100.566528	2007.926147	1976.266357	96.510780
804.122864	1101.190308	2004.979614	1974.567261	96.635017
804.431030	1100.007324	2001.473877	1971.082886	96.628716
804.739197	1102.201172	2001.990112	1967.705933	96.189751
805.047241	1102.416138	2005.754028	1968.652466	95.892838
805.355408	1101.426758	2007.345703	1973.405762	96.253532
805.663391	1099.146973	2007.990601	1976.911621	96.580383
805.971313	1099.168457	2010.550049	1977.427734	96.365700
806.279175	1098.286621	2015.131226	1977.384766	95.883003
806.587036	1097.641479	2015.045410	1980.310059	96.213737
806.894836	1098.566284	2019.046021	1980.654175	95.829147
807.202576	1098.351074	2019.497314	1982.202637	95.951279
807.510193	1096.888550	2016.873535	1980.632446	96.060684
807.817810	1095.210938	2012.937622	1977.191284	96.104904
808.125427	1093.791504	2003.044067	1972.567139	96.648132
808.432922	1094.114136	1993.773804	1965.512207	96.858635
808.740295	1094.587280	1982.503540	1957.791016	97.216797
809.047729	1097.576904	1975.276978	1950.478394	97.174591
809.355103	1097.039185	1967.017944	1940.670776	96.971519
809.662415	1098.329590	1958.005981	1935.293457	97.358017
809.969604	1100.652466	1948.585449	1924.948364	97.212387
810.276794	1098.867310	1934.863403	1914.065186	97.512161
810.583923	1098.996460	1925.744141	1905.935059	97.603973
810.890991	1101.254761	1915.011597	1894.234741	97.446800
811.197998	1102.093628	1908.214844	1888.492065	97.553375
811.505005	1103.018433	1904.429321	1881.953491	97.195465
811.811829	1101.706421	1894.557129	1877.286255	97.821671
812.118713	1101.899902	1888.190918	1871.134888	97.830826
812.425537	1099.835205	1879.695313	1864.639404	98.069412
812.732300	1098.222168	1872.963257	1859.369995	98.245445
813.038940	1097.684448	1866.187988	1854.466309	98.474739
813.345581	1098.845825	1863.585571	1849.476563	98.155060
813.652100	1099.060913	1860.918823	1848.035522	98.308960
813.958740	1097.426270	1856.810913	1843.432861	98.238304
814.265137	1096.953125	1852.681152	1842.894897	98.705055
814.571533	1097.921021	1844.830811	1836.980347	98.948944
814.877930	1098.329590	1838.356934	1834.420776	99.468109
815.184265	1099.039429	1836.184448	1829.194214	99.051712
815.490540	1097.770386	1834.356323	1825.624146	98.814507
815.796692	1097.254150	1834.635864	1822.118408	98.302444
816.102844	1099.211426	1837.539551	1822.397949	97.949203
816.408936	1100.523438	1839.324341	1820.612793	97.467308
816.714966	1099.211426	1841.475098	1820.999878	97.241516
817.020935	1100.673950	1842.270996	1823.688354	97.494240
817.326843	1103.964722	1845.712402	1826.290894	97.381653
817.632690	1102.158081	1852.294067	1827.989868	96.760025
817.938477	1101.835449	1856.961304	1834.571411	97.034943
818.244263	1101.792480	1867.629272	1839.410522	96.315308
818.549988	1100.760010	1873.328857	1848.422607	96.776176
818.855652	1103.470093	1885.846558	1861.305908	96.863319
819.161194	1103.706665	1902.515503	1877.781250	96.903610
819.466797	1103.771118	1925.163330	1903.096191	97.313446
819.772278	1103.255005	1952.435425	1937.422974	98.232124
820.077698	1102.738770	1988.138794	1973.749878	98.374870
820.383057	1101.813843	2028.810669	2014.335571	98.438492
820.688354	1098.673706	2080.752441	2062.277100	98.118752
820.993652	1101.663330	2157.772705	2141.921143	98.499062
821.298828	1101.684814	2304.586670	2284.519531	98.331772
821.604004	1100.630981	2572.469482	2559.758057	99.136360
821.909058	1099.835205	2981.638184	2962.195068	98.966782
822.214111	1096.953125	3465.762695	3439.372559	98.885933
822.519165	1097.985474	3929.153320	3898.504639	98.917442
822.824036	1096.824097	4320.793457	4281.583984	98.783813
823.128906	1095.361450	4639.757813	4591.192383	98.629799
823.433716	1096.178833	4895.488281	4842.600098	98.607956
823.738525	1094.673340	5104.998047	5047.894043	98.576073
824.043213	1094.049683	5264.351074	5208.301270	98.655975
824.347900	1090.887817	5364.987793	5307.926758	98.664955
824.652466	1090.414551	5375.397949	5318.809570	98.679382
824.957031	1093.103149	5241.897461	5174.577148	98.377350
825.261536	1093.318237	4947.731445	4881.164063	98.272957
825.565979	1093.167725	4563.447266	4500.062988	98.173508
825.870300	1095.705688	4180.711426	4119.908203	98.029076
826.174622	1097.125122	3872.071045	3817.247070	98.024330
826.478821	1098.157593	3660.776367	3607.521973	97.921875
826.783142	1096.867188	3533.771240	3484.474854	97.977089
827.087280	1097.469482	3464.859375	3409.842041	97.676033
827.391357	1099.361938	3414.552246	3361.470215	97.707230
827.695435	1101.211670	3371.278320	3319.680420	97.727028
827.999451	1102.416138	3325.917725	3274.276611	97.677490
828.303406	1102.179565	3276.857910	3231.281982	97.904259
828.607239	1101.964478	3237.540771	3192.352539	97.884041
828.911011	1102.459106	3190.309326	3145.378906	97.848015
829.214844	1099.942749	3143.464844	3104.470459	98.091805
829.518616	1098.609375	3076.682617	3039.344482	98.112396
829.822205	1098.781372	2972.583496	2938.084229	98.158859
830.125793	1098.673706	2829.640869	2797.787354	98.159782
830.429382	1099.168457	2664.308838	2638.133057	98.327576
830.732849	1098.824341	2509.278564	2485.748779	98.331757
831.036316	1096.824097	2377.025635	2351.538574	98.009140
831.339661	1096.651978	2268.861816	2240.342041	97.567009
831.642944	1093.748413	2178.850830	2152.094482	97.534210
831.946228	1096.286377	2102.174561	2076.945557	97.491867
832.249512	1098.222046	2045.307129	2024.057373	97.756302
832.552673	1099.082275	2010.528564	1986.568726	97.371231
832.855774	1102.932373	1996.849487	1974.975830	97.553055
833.158813	1104.997192	2013.561401	1992.978027	97.734520
833.461731	1103.921753	2059.653076	2038.876465	97.826103
833.764771	1103.900269	2119.768066	2102.690674	98.318939
834.067627	1103.104492	2185.711914	2164.741455	98.062965
834.370422	1102.975464	2241.912354	2224.039307	98.430725
834.673157	1101.663452	2288.176025	2275.744385	98.952255
834.975891	1101.900024	2330.245850	2316.373047	98.870613
835.278564	1098.308105	2362.443115	2347.366211	98.807335
835.581177	1096.910156	2382.402588	2364.336182	98.594589
835.883728	1095.985229	2384.703857	2367.777344	98.686562
836.186218	1092.802002	2366.636963	2350.979492	98.770844
836.488647	1090.307129	2323.083252	2308.307373	98.801414
836.791077	1092.092285	2254.881348	2239.094727	98.642349
837.093384	1090.586792	2176.441650	2156.976807	98.207420
837.395630	1090.737305	2090.258789	2073.332275	98.306541
837.697815	1093.017090	2016.034790	1997.021606	97.940109
838.000061	1094.286255	1949.897705	1928.798340	97.534004
838.302124	1096.006714	1888.363281	1869.608154	97.632996
838.604126	1098.996338	1832.979980	1816.590698	97.767075
838.906128	1098.566284	1788.243042	1771.724731	97.604919
839.208069	1100.910645	1753.615112	1736.774292	97.419838
839.510010	1100.050293	1732.945801	1712.900391	96.832748
839.811829	1101.061157	1722.105835	1699.500732	96.360146
840.113586	1101.985962	1716.105103	1692.102295	96.091507
840.415222	1102.351685	1711.566895	1688.553223	96.222404
840.716919	1102.050537	1712.921875	1688.596069	96.017853
841.018555	1100.630981	1710.857056	1686.832764	96.063049
841.320068	1100.523560	1709.136353	1684.488281	95.950119
841.621521	1097.641357	1705.630737	1679.928833	95.772636
841.922974	1097.512329	1703.781128	1678.487549	95.827995
842.224365	1096.221802	1698.167480	1674.508667	96.069611
842.525635	1095.727173	1688.209351	1666.120361	96.271790
842.826965	1097.619873	1671.691040	1649.881714	96.200935
843.128174	1098.673706	1646.139526	1628.158691	96.715622
843.429260	1097.447754	1618.781250	1604.284790	97.219353
843.730408	1101.663208	1595.208496	1583.637085	97.655449
844.031433	1103.362427	1574.797241	1560.860107	97.043678
844.332397	1105.384277	1555.224976	1541.309326	96.906540
844.633362	1105.083130	1538.384277	1523.930786	96.664330
844.934204	1106.029419	1523.844604	1508.982788	96.442970
845.235046	1107.234009	1509.713989	1493.109741	95.874519
845.535828	1108.266357	1497.755371	1479.301636	95.262062
845.836487	1108.546021	1485.108521	1465.600952	94.819565
846.137146	1107.642700	1474.763428	1455.879272	94.856148
846.437744	1105.556396	1465.708496	1444.200439	94.028061
846.738281	1105.147583	1457.642944	1435.059692	93.593323
847.038757	1102.179565	1449.856934	1424.305542	92.650833
847.339172	1099.749146	1439.275024	1419.358643	94.134064
847.639526	1098.329590	1433.338867	1415.143066	94.568565
847.939819	1097.748901	1427.101563	1409.249878	94.579765
848.240112	1097.512207	1421.896606	1406.002075	95.100090
848.540283	1096.479980	1416.369141	1402.302856	95.602760
848.840393	1097.533813	1413.573120	1400.861816	95.977936
849.140564	1094.888428	1410.583374	1396.172974	95.435341
849.440552	1096.888672	1405.034302	1393.742676	96.335617
849.740540	1097.082153	1402.818970	1390.430298	95.947929
850.040405	1098.910400	1400.259644	1388.688110	96.160095
850.340210	1097.985596	1397.183838	1386.193237	96.326653
850.640137	1098.695435	1395.613770	1383.031616	95.762421
850.939819	1098.652344	1392.194092	1379.224609	95.581726
851.239502	1096.910156	1388.193481	1379.181641	96.906158
851.539185	1096.178955	1387.333130	1377.740601	96.705345
851.838745	1095.748779	1385.676880	1378.730103	97.603966
852.138245	1094.458130	1379.504272	1375.955444	98.754997
852.437744	1095.920776	1376.944824	1376.192017	99.732117
852.737122	1094.608643	1377.912598	1372.406738	98.056557
853.036499	1095.641113	1375.912354	1369.761230	97.805298
853.335815	1094.802246	1372.449585	1367.782349	98.319008
853.635010	1095.963623	1369.954712	1365.696167	98.445740
853.934204	1095.899170	1371.395630	1364.147583	97.369095
854.233276	1095.985229	1372.707886	1364.771240	97.131912
854.532410	1095.791748	1372.428223	1358.942505	95.125114
854.831482	1096.157349	1368.943848	1352.920288	94.125969
855.130371	1094.974487	1366.298340	1347.693848	93.143066
855.429260	1096.049927	1364.212158	1343.585815	92.308258
855.728088	1094.479736	1360.727783	1341.542603	92.794243
856.026855	1094.221558	1355.888550	1341.478027	94.492798
856.325623	1094.264526	1354.361450	1342.703979	95.518028
856.624329	1094.737793	1354.124878	1340.553223	94.767799
856.922913	1095.124878	1352.404175	1339.886475	95.134590
857.221436	1097.426270	1348.661743	1339.348755	96.293121
857.519958	1097.727417	1345.715088	1337.757080	96.790970
857.818420	1097.942383	1343.327759	1340.058472	98.667694
858.116821	1099.856567	1341.951172	1341.284424	99.724594
858.415161	1102.179565	1343.241699	1339.284302	98.358353
858.713379	1102.738770	1342.553589	1341.220093	99.443947
859.011658	1107.018799	1343.542847	1339.907959	98.463203
859.309814	1108.115723	1343.306274	1335.068726	96.497498
859.607910	1107.470581	1341.456543	1332.380127	96.120956
859.905945	1108.868652	1340.897339	1330.874512	95.680351
860.203979	1107.707153	1340.209106	1327.261230	94.431068
860.501953	1107.879272	1338.531494	1324.035034	93.715012
860.799744	1107.707153	1335.713989	1320.486206	93.321350
861.097656	1109.642822	1335.950439	1317.195557	91.712662
861.395325	1109.513794	1336.337646	1313.151978	89.778114
861.693115	1108.416870	1335.090088	1313.496094	90.473511
861.990784	1108.804199	1335.434326	1312.915405	90.063583
862.288330	1107.384521	1333.261963	1312.678833	90.887482
862.585815	1104.739136	1334.401855	1314.829590	91.477821
862.883301	1106.244629	1334.294434	1313.087402	90.700699
863.180786	1106.072632	1332.702881	1314.958740	92.170448
863.478149	1107.018799	1330.745605	1315.324219	93.107048
863.775452	1105.319824	1330.272339	1316.378174	93.823509
864.072693	1108.072876	1331.455200	1316.442749	93.279480
864.369873	1109.750366	1331.390747	1317.302979	93.643860
864.667114	1108.997681	1328.680664	1317.302979	94.820862
864.964111	1108.223511	1327.970947	1316.743896	94.890930
865.261169	1106.653198	1327.347168	1314.872559	94.347549
865.558105	1105.190796	1328.938843	1315.173706	93.847931
865.855042	1105.362793	1327.261230	1313.947754	94.000191
866.151917	1103.878662	1326.099731	1315.259766	95.121986
866.448730	1100.652466	1325.863159	1311.904541	93.801971
866.745422	1102.373047	1327.454590	1311.022705	92.699585
867.042114	1100.781616	1327.583862	1310.657104	92.536774
867.338806	1096.609009	1324.422241	1309.560181	93.476212
867.635376	1094.673218	1321.066895	1308.850464	94.603897
867.931824	1096.458496	1322.765991	1310.011841	94.364235
868.228271	1096.781128	1320.077515	1308.785889	94.943214
868.524658	1096.307861	1319.561401	1307.000732	94.373810
868.821045	1098.824341	1318.120361	1306.635132	94.762680
869.117310	1098.458618	1315.474731	1306.591919	95.906845
869.413574	1096.888550	1314.958740	1303.796021	94.881134
869.709717	1097.856567	1312.205566	1305.989746	97.100143
870.005859	1095.038940	1308.957886	1307.860840	99.487167
870.301880	1096.437012	1308.463257	1307.516724	99.553574
870.597900	1095.490601	1308.334106	1305.193848	98.524612
870.893860	1095.813232	1311.990479	1304.075562	96.338692
871.189636	1092.371948	1311.753906	1303.709961	96.333359
871.485535	1092.845093	1311.108643	1304.828247	97.122566
871.781311	1092.006348	1310.269897	1304.527222	97.368927
872.077026	1090.264160	1310.700073	1302.978638	96.497200
872.372681	1091.963379	1311.818481	1305.301636	97.035843
872.668274	1093.210815	1312.807861	1306.570435	97.159607
872.963806	1092.715942	1314.592896	1304.118530	95.279198
873.259338	1093.275269	1318.679565	1301.258057	92.270996
873.554688	1093.812988	1319.346191	1300.870972	91.808205
873.850098	1096.695190	1320.507813	1302.397949	91.908470
874.145447	1096.501465	1318.335449	1305.323120	94.134201
874.440674	1100.265503	1317.582520	1307.602783	95.407753
874.735840	1099.362183	1320.335693	1307.796387	94.325424
875.031006	1101.577393	1323.110107	1309.689209	93.941795
875.326050	1100.437378	1323.970581	1310.807617	94.111404
875.621094	1101.190186	1325.389893	1307.581299	92.056816
875.916077	1103.599121	1325.583618	1308.161987	92.151871
876.210999	1106.502686	1326.917114	1309.258911	91.988632
876.505798	1107.363037	1322.895142	1312.592651	95.219971
876.800598	1106.997192	1321.776855	1311.194702	95.073021
877.095337	1104.007690	1322.077881	1314.549927	96.547920
877.390015	1106.201538	1323.088745	1312.076660	94.922668
877.684692	1105.728516	1322.335938	1310.205322	94.399727
877.979187	1107.470581	1319.884033	1311.087158	95.858604
878.273804	1105.534790	1319.862549	1312.377686	96.507751
878.568237	1106.136963	1322.701660	1314.506958	96.216049
878.862610	1103.061401	1325.884766	1318.701050	96.776047
879.156921	1100.889160	1330.896118	1323.819946	96.923500
879.451172	1098.071533	1337.219604	1330.229370	97.077026
879.745422	1098.759888	1348.382202	1335.843018	94.976738
880.039612	1097.555298	1361.480591	1350.425415	95.811249
880.333679	1098.587769	1381.999146	1366.470581	94.520836
880.627686	1097.017578	1415.164673	1400.732666	95.463730
880.921692	1096.221802	1469.020752	1454.373657	96.071045
881.215698	1096.350830	1556.386353	1537.308594	95.852982
881.509460	1099.362183	1671.239380	1651.903442	96.618866
881.803345	1099.469604	1812.289063	1792.157349	97.175766
882.097046	1101.512817	1959.898804	1937.702637	97.414200
882.390808	1102.115112	2098.131104	2076.601318	97.838409
882.684448	1103.685059	2225.781250	2201.068359	97.797615
882.978027	1101.082642	2336.439941	2311.512207	97.982147
883.271545	1102.566772	2432.086426	2404.405518	97.917976
883.565002	1103.147583	2508.117432	2481.404297	98.098671
883.858398	1102.588379	2560.855225	2529.646729	97.859894
884.151733	1101.211670	2581.567383	2545.562744	97.567841
884.445068	1100.846069	2557.413818	2521.667480	97.545853
884.738281	1099.233032	2489.964600	2452.884521	97.333771
885.031433	1099.168335	2383.198486	2347.323242	97.206047
885.324585	1100.738403	2262.624268	2228.512695	97.064117
885.617676	1098.738281	2142.071777	2108.541016	96.786186
885.910645	1097.576904	2026.401489	1992.419067	96.341354
886.203552	1099.168457	1921.829590	1887.502808	95.827347
886.496521	1099.942749	1824.979004	1793.211426	95.618484
886.789368	1100.673950	1740.645996	1707.759766	94.861305
887.082153	1102.760254	1661.023071	1634.481934	95.245766
887.374817	1103.728149	1595.316040	1573.463745	95.554756
887.667480	1103.577637	1537.825073	1518.446167	95.537361
887.960083	1104.222900	1492.916382	1473.021362	94.881569
888.252625	1103.642212	1455.427734	1438.414917	95.163864
888.545166	1103.190552	1428.241699	1410.777100	94.627121
888.837524	1105.599487	1404.969849	1389.312012	94.769745
889.129883	1107.255493	1386.171875	1374.750977	95.905258
889.422241	1106.696411	1371.417358	1359.695313	95.571922
889.714478	1093.511841	1322.292847	1336.488037	106.204704
890.006714	1107.707153	1357.544556	1331.046631	89.393929
890.298767	1110.072998	1317.324585	1328.917358	105.593575
890.590881	1113.858398	1319.453735	1313.065796	96.892952
890.882935	1094.694824	1328.207642	1283.965454	81.053635
>>>>>End Processed Spectral Data<<<<<
