Jaz Data File
++++++++++++++++++++++++++++++++++++
Date: Mon Apr 22 19:27:55 2019
User: jaz
Dark Spectrum Present: Yes
Reference Spectrum Present: Yes
Processed Spectrum Present: Yes
Spectrometers: JAZA2928
Integration Time (usec): 40000 (JAZA2928)
Spectra Averaged: 10 (JAZA2928)
Boxcar Smoothing: 5 (JAZA2928)
Correct for Electrical Dark: No (JAZA2928)
Strobe/Lamp Enabled: Yes (JAZA2928)
Correct for Detector Non-linearity: No (JAZA2928)
Correct for Stray Light: No (JAZA2928)
Number of Pixels in Processed Spectrum: 2048
>>>>>Begin Processed Spectral Data<<<<<
W	D	R	S	P
190.104553	0.000000	0.000000	0.000000	0.000000
190.488098	0.000000	0.000000	0.000000	0.000000
190.871613	1077.423828	1084.994751	1073.875000	-46.874447
191.255096	1080.499390	1079.079956	1073.638428	483.359131
191.638535	0.000000	0.000000	0.000000	0.000000
192.021942	903.294739	908.865295	893.142944	-182.240219
192.405334	1004.317993	1010.039124	993.219788	-193.986237
192.788696	1107.599609	1112.288330	1094.350586	-282.572235
193.172012	1111.471069	1116.052246	1098.996216	-272.306763
193.555313	1116.138306	1118.654663	1104.050659	-480.362854
193.938568	1122.375488	1122.956299	1108.373779	-2410.718750
194.321793	1125.386597	1126.505127	1110.911743	-1294.095825
194.704987	1126.655640	1129.473267	1112.546387	-500.749512
195.088150	1127.429810	1129.387207	1113.213135	-726.304932
195.471298	1126.505249	1131.710083	1116.310425	-195.872223
195.854401	1127.494629	1132.054199	1114.933838	-275.481903
196.237457	1129.064575	1128.957031	1113.707886	14279.455078
196.620499	1129.043091	1130.441040	1114.159668	-1064.661255
197.003494	1127.171875	1130.140137	1113.320801	-466.639252
197.386475	1126.999878	1131.129395	1112.159302	-359.378052
197.769424	1126.419067	1132.441406	1109.083618	-287.852448
198.152344	1123.365112	1134.527832	1107.061890	-146.050629
198.535217	1120.934570	1135.947266	1105.319824	-104.010277
198.918076	1121.149658	1138.098022	1105.233643	-93.908859
199.300903	1121.838013	1139.668091	1104.868042	-95.176086
199.683670	1123.838257	1144.421387	1103.556030	-98.538109
200.066422	1123.730591	1145.023560	1105.040161	-87.777473
200.449142	1121.967041	1147.884277	1106.782349	-58.589165
200.831848	1122.719849	1149.174683	1106.846802	-60.000553
201.214508	1123.537109	1149.002686	1108.266357	-59.966255
201.597137	1122.891846	1150.120972	1107.212524	-57.582905
201.979736	1122.612183	1152.874146	1107.470581	-50.035095
202.362274	1122.633789	1149.088623	1108.072754	-55.041115
202.744827	1121.257202	1147.625977	1107.814575	-50.979340
203.127319	1119.171021	1146.055908	1105.190674	-52.000763
203.509796	1116.525513	1142.786621	1103.728027	-48.731705
203.892227	1113.406860	1136.872070	1101.405151	-51.146820
204.274643	1110.567749	1137.151489	1100.717041	-37.055389
204.657013	1110.804321	1134.850342	1099.663208	-46.332462
205.039352	1108.223389	1132.441406	1099.018066	-38.010223
205.421661	1104.932617	1135.796753	1097.211304	-25.017105
205.803940	1103.964722	1135.516968	1095.942261	-25.425959
206.186188	1103.771118	1133.344727	1097.748901	-20.363483
206.568405	1101.921387	1134.248169	1098.845825	-9.513973
206.950592	1103.297974	1136.119263	1100.501831	-8.519296
207.332748	1101.340698	1133.882446	1102.867798	4.692740
207.714859	1099.964233	1136.269775	1104.523926	12.559218
208.096939	1099.598511	1137.732422	1106.567261	18.274418
208.478989	1098.695190	1137.280762	1107.879272	23.801855
208.861008	1098.931763	1138.291626	1105.212280	15.956655
209.243011	1099.318848	1140.765137	1103.556152	10.223604
209.624969	1098.652222	1139.410034	1105.556396	16.939512
210.006897	1098.480103	1140.377808	1108.588989	24.127542
210.388794	1097.469238	1141.345703	1106.717773	21.078579
210.770645	1097.426270	1141.603882	1105.427246	18.110929
211.152481	1097.146606	1140.549927	1104.136841	16.105299
211.534286	1097.404785	1143.152344	1102.050659	10.155457
211.916061	1097.490723	1141.238159	1100.458862	6.784717
212.297791	1097.985474	1142.119995	1101.727905	8.479602
212.679489	1097.125122	1143.195435	1100.996704	8.403638
213.061157	1093.662354	1142.313599	1104.222778	21.706381
213.442795	1093.812988	1142.786743	1105.298340	23.452055
213.824402	1094.071167	1142.829712	1101.985962	16.232632
214.205963	1094.823730	1141.496216	1100.028809	11.152349
214.587524	1093.705444	1141.195190	1098.867310	10.869431
214.969025	1094.952881	1142.937378	1098.566284	7.530356
215.350510	1093.554932	1145.948486	1100.544922	13.341317
215.731949	1092.823730	1144.572021	1103.104370	19.866627
216.113358	1092.221558	1147.841309	1105.298218	23.510820
216.494736	1093.361328	1147.239014	1105.577759	22.674379
216.876083	1093.124878	1145.324707	1107.147827	26.863976
217.257401	1094.823975	1146.765747	1107.255371	23.933331
217.638702	1094.910034	1149.389771	1109.685791	27.121565
218.019943	1095.791748	1151.841553	1112.632446	30.045954
218.401169	1094.006592	1152.142700	1113.492676	33.518040
218.782349	1094.372070	1154.788208	1117.084595	37.593472
219.163498	1094.436646	1158.272583	1118.654785	37.938095
219.544632	1098.286621	1158.659668	1117.665527	32.098606
219.925705	1102.416138	1162.423584	1117.321411	24.839039
220.306778	1103.104370	1163.929199	1119.966797	27.722933
220.687805	1101.082520	1168.661011	1120.138794	28.198727
221.068802	1101.770996	1176.640503	1120.203247	24.619169
221.449738	1101.985840	1182.598145	1121.708862	24.466516
221.830673	1099.340454	1186.620117	1122.138916	26.121162
222.211563	1098.394043	1191.932617	1124.547852	27.960453
222.592438	1098.759766	1200.084106	1127.709595	28.571445
222.973267	1099.060913	1206.730225	1129.301270	28.086329
223.354065	1097.727417	1211.655518	1132.376953	30.413511
223.734848	1093.791382	1217.828369	1134.011597	32.425983
224.115555	1090.436157	1228.302734	1138.872192	35.132542
224.496262	1092.694458	1238.497559	1140.678955	32.910477
224.876923	1092.178223	1246.498535	1143.432007	33.212597
225.257568	1091.016846	1255.639526	1147.131348	34.086739
225.638168	1088.113281	1265.554688	1152.379272	36.218147
226.018723	1090.479248	1277.147583	1159.821045	37.147060
226.399277	1092.328735	1291.923462	1166.402466	37.112068
226.779785	1094.759277	1309.861206	1173.134521	36.436329
227.160263	1093.726929	1333.046875	1181.845459	36.820389
227.540695	1093.103149	1363.351685	1194.126465	37.381634
227.921112	1091.984741	1408.217529	1212.903076	38.237129
228.301483	1092.501099	1466.525879	1236.024170	38.372612
228.681824	1092.006348	1543.460083	1266.199829	38.585014
229.062134	1095.339966	1631.212891	1301.214966	38.418625
229.442413	1095.404419	1713.438232	1333.218872	38.479198
229.822647	1099.469604	1782.349976	1357.286499	37.754330
230.202881	1100.846069	1832.011841	1373.869263	37.340805
230.583054	1100.674072	1871.651245	1387.462402	37.198032
230.963196	1098.372681	1904.106934	1400.324097	37.475311
231.343292	1097.576782	1930.819946	1411.056519	37.621639
231.723404	1097.146606	1946.348755	1415.121460	37.443954
232.103439	1098.372681	1940.670654	1412.669678	37.314228
232.483459	1098.630737	1913.054321	1401.399414	37.175823
232.863434	1096.802612	1867.650757	1381.633545	36.950329
233.243393	1091.662109	1814.934814	1359.222168	36.992970
233.623306	1092.909668	1767.294434	1339.821899	36.612961
234.003174	1092.242920	1737.763672	1327.519409	36.447548
234.383041	1089.382324	1724.880371	1323.325195	36.812523
234.762848	1090.930786	1717.675293	1319.453857	36.461918
235.142639	1091.855591	1711.932495	1317.001953	36.309425
235.522385	1094.135498	1708.491089	1315.087769	35.964882
235.902115	1095.834839	1710.212036	1314.291992	35.557495
236.281799	1095.641113	1716.384766	1315.367310	35.397251
236.661438	1096.178833	1729.009888	1318.357056	35.108616
237.041077	1095.576660	1740.946899	1323.411255	35.302929
237.420654	1098.458618	1747.033569	1326.379517	35.141796
237.800217	1097.963989	1755.550659	1329.476685	35.206417
238.179733	1098.351074	1761.530029	1332.143677	35.253319
238.559219	1100.372925	1769.509644	1333.412598	34.826916
238.938690	1098.265137	1782.220703	1337.047363	34.911949
239.318100	1096.630493	1800.158325	1340.617676	34.680531
239.697510	1097.017578	1821.687988	1346.661499	34.449306
240.076859	1097.168091	1847.260986	1356.963867	34.635147
240.456177	1098.178955	1891.976440	1370.169800	34.264515
240.835464	1096.651855	1948.263184	1389.312012	34.365459
241.214722	1097.275757	2024.745728	1414.153809	34.165855
241.593948	1097.963989	2132.092285	1449.426880	33.986393
241.973129	1097.856567	2259.333740	1490.098755	33.770977
242.352295	1097.297363	2406.750000	1539.330566	33.757099
242.731415	1097.856323	2553.327148	1587.121460	33.615593
243.110519	1095.877686	2674.417480	1625.986450	33.582222
243.489578	1095.877686	2769.440186	1655.925781	33.464428
243.868607	1096.049805	2835.943115	1678.078979	33.452003
244.247604	1097.684448	2886.035156	1692.897949	33.282818
244.626541	1098.910278	2917.953125	1704.598145	33.297066
245.005493	1099.792114	2945.719727	1711.179688	33.120884
245.384369	1100.114868	2970.948975	1717.481567	32.999542
245.763229	1100.609497	2998.909180	1725.740601	32.931107
246.142059	1102.760254	3052.937500	1742.817993	32.820492
246.520859	1102.351685	3154.261475	1771.101196	32.591568
246.899612	1100.889038	3308.366943	1818.612427	32.513275
247.278336	1101.942993	3494.518799	1879.372559	32.493416
247.657043	1102.394653	3664.540039	1935.745239	32.525497
248.035690	1101.405273	3803.309570	1981.363647	32.568081
248.414322	1100.867676	3921.002197	2019.626465	32.578545
248.792908	1099.297607	4008.367432	2046.662109	32.565891
249.171478	1099.835205	4061.642822	2063.502930	32.536472
249.550003	1101.104126	4068.827148	2066.299072	32.523079
249.928482	1100.588013	4035.661621	2055.028809	32.518459
250.306961	1099.620117	3942.724854	2026.208130	32.590710
250.685364	1099.362061	3780.747803	1974.782104	32.648045
251.063782	1100.652466	3577.324951	1912.322998	32.772625
251.442123	1101.168701	3379.536865	1850.982056	32.910107
251.820450	1102.416138	3241.261963	1808.976929	33.034679
252.198761	1102.201050	3168.177490	1783.726563	32.988056
252.576996	1101.276245	3111.740479	1765.401611	33.033432
252.955246	1101.921509	3063.153809	1750.560913	33.073051
253.333420	1101.039673	3017.792969	1740.323120	33.352413
253.711578	1100.437500	2990.306152	1731.182373	33.375065
254.089706	1100.308472	2965.872803	1722.170410	33.333717
254.467804	1098.716675	2948.537354	1716.148315	33.377918
254.845871	1099.856567	2933.202148	1714.169434	33.507751
255.223877	1098.996338	2907.005371	1704.168091	33.471722
255.601898	1100.480347	2870.334229	1686.682129	33.121479
255.979828	1098.265137	2818.026367	1665.453857	32.980667
256.357727	1098.630737	2763.826172	1646.397583	32.895050
256.735657	1098.480225	2741.457764	1636.761841	32.762566
257.113525	1098.071411	2758.492432	1640.956177	32.695610
257.491333	1098.480347	2812.197754	1653.645752	32.395390
257.869110	1097.835083	2891.799072	1683.111816	32.624775
258.246887	1097.684448	3007.146729	1721.030518	32.645111
258.624573	1097.232788	3174.092285	1773.359375	32.555241
259.002289	1097.275757	3402.142090	1842.873535	32.348854
259.379944	1098.566284	3704.265625	1937.874268	32.210472
259.757538	1098.415649	4068.052490	2054.254639	32.187069
260.135162	1099.318970	4428.032715	2169.774170	32.158222
260.512665	1100.760010	4715.939453	2262.366211	32.131355
260.890228	1099.792114	4904.715332	2323.685791	32.166054
261.267700	1101.147095	5016.622070	2357.431885	32.085117
261.645142	1101.942871	5083.039063	2378.079590	32.054909
262.022552	1103.211914	5120.677734	2383.542725	31.869116
262.399994	1102.717285	5125.904297	2381.456299	31.784229
262.777313	1103.857178	5080.715820	2365.368164	31.721292
263.154602	1104.911011	4961.216309	2324.094238	31.615320
263.531921	1102.824707	4760.159180	2254.752441	31.496374
263.909149	1102.459106	4480.791504	2165.214600	31.457989
264.286377	1101.491333	4192.583984	2072.020264	31.397600
264.663574	1099.878174	3972.277100	1996.849731	31.227262
265.040710	1101.921509	3845.767090	1951.812012	30.974428
265.417816	1099.168457	3795.782227	1933.572998	30.942678
265.794891	1099.340576	3797.803955	1932.776978	30.885592
266.171936	1099.104004	3841.508057	1945.402222	30.859720
266.548950	1099.921265	3899.708740	1961.016846	30.755747
266.925934	1101.383789	3954.425049	1974.696167	30.609875
267.302887	1100.329834	4020.368896	1994.913940	30.636032
267.679810	1102.308594	4091.776367	2017.561768	30.615923
268.056671	1102.652710	4176.216797	2040.467896	30.512304
268.433502	1101.749512	4266.658203	2063.201904	30.378519
268.810333	1101.684814	4350.517578	2087.290771	30.337233
269.187073	1099.039429	4426.677734	2109.293457	30.359491
269.563843	1101.362305	4488.276855	2125.811523	30.247271
269.940521	1100.588013	4541.895996	2136.393799	30.099188
270.317200	1099.899780	4605.710449	2152.180664	30.015339
270.693848	1099.146973	4713.035645	2183.603760	30.008030
271.070435	1097.705933	4884.304199	2230.104248	29.905426
271.447021	1095.856323	5082.371582	2285.638184	29.845161
271.823547	1093.920532	5251.705078	2329.256592	29.711401
272.200043	1092.931152	5382.043457	2366.013916	29.681730
272.576538	1096.501465	5496.100098	2396.168213	29.540575
272.952972	1096.630493	5606.415527	2428.946289	29.542778
273.329346	1099.641602	5698.835449	2454.046143	29.448738
273.705688	1097.490723	5766.155762	2472.607666	29.454178
274.082062	1094.221558	5809.837891	2483.791748	29.467415
274.458344	1094.049438	5806.568848	2479.748291	29.404629
274.834595	1093.060059	5748.755371	2459.853271	29.357445
275.210846	1093.748413	5652.141113	2428.085693	29.272100
275.587006	1095.361572	5538.041016	2392.253418	29.191658
275.963165	1096.135864	5473.688965	2374.272705	29.197517
276.339294	1095.920898	5444.265625	2362.142334	29.119619
276.715393	1094.329224	5440.265137	2360.744385	29.140217
277.091461	1093.942017	5437.361816	2356.829834	29.075886
277.467438	1092.931152	5444.867676	2358.378418	29.077797
277.843445	1094.372192	5460.289551	2363.604736	29.071383
278.219452	1097.361816	5481.604004	2368.981689	29.004326
278.595337	1097.275757	5513.521484	2378.724854	29.016708
278.971191	1097.318726	5547.805664	2386.510742	28.967438
279.347046	1096.716553	5572.969727	2394.339600	28.989046
279.722870	1095.727051	5607.189453	2400.598145	28.923462
280.098663	1096.953125	5631.234863	2403.910400	28.823910
280.474396	1098.222168	5683.004883	2415.180664	28.724556
280.850098	1099.727539	5749.679688	2429.526367	28.598118
281.225800	1099.770630	5852.595703	2451.357178	28.437540
281.601440	1099.125488	5983.816895	2485.576416	28.383593
281.977051	1098.996338	6153.665527	2528.463867	28.280142
282.352600	1100.265503	6314.695801	2572.942383	28.242336
282.728149	1102.996948	6448.454590	2607.355225	28.142742
283.103668	1104.007935	6547.198242	2631.616211	28.064575
283.479156	1102.588379	6633.079590	2652.135010	28.018246
283.854553	1102.502319	6720.380859	2677.020020	28.026909
284.229950	1098.480347	6819.877930	2706.572021	28.106625
284.605347	1096.501587	6916.750000	2732.166748	28.103012
284.980652	1094.888428	7007.728516	2757.094482	28.111805
285.355988	1092.500977	7095.331055	2781.097412	28.130005
285.731201	1094.243042	7173.210938	2801.508545	28.084793
286.106445	1094.888428	7234.551758	2814.348633	28.005775
286.481659	1094.802368	7309.464355	2829.296875	27.909716
286.856781	1091.490112	7380.248047	2844.072754	27.868504
287.231934	1093.942017	7436.878418	2860.634033	27.852903
287.607025	1097.254272	7468.667480	2866.978760	27.776012
287.982056	1100.114868	7471.699707	2860.956787	27.635855
288.357086	1103.577637	7457.009766	2852.525635	27.527609
288.732086	1104.201294	7427.049805	2842.739258	27.496119
289.107025	1104.373413	7399.476563	2831.103760	27.429739
289.481934	1106.137085	7369.988770	2820.070068	27.362286
289.856842	1104.395020	7367.579590	2812.692871	27.275229
290.231659	1103.276611	7383.409668	2814.800537	27.252989
290.606506	1102.717407	7399.583984	2814.929688	27.191496
290.981262	1104.029419	7420.532715	2820.457275	27.173702
291.355988	1103.341064	7460.408203	2829.727051	27.156956
291.730713	1101.276245	7499.531250	2840.352051	27.180471
292.105377	1100.996582	7523.040527	2850.568604	27.243227
292.480011	1102.115112	7531.126953	2858.698486	27.322760
292.854614	1101.340698	7544.418945	2867.839355	27.417000
293.229187	1102.093628	7573.949707	2883.927246	27.532034
293.603729	1104.115356	7617.632324	2909.048584	27.710577
293.978241	1103.771240	7652.840332	2931.481445	27.907938
294.352692	1101.964478	7681.683105	2955.699463	28.173468
294.727081	1101.061035	7708.525391	2984.993652	28.512188
295.101501	1098.609253	7761.865234	3020.632080	28.845100
295.475830	1095.512085	7848.133301	3064.702393	29.161865
295.850189	1095.038940	7991.893555	3130.172607	29.508142
296.224457	1091.683716	8203.381836	3214.613281	29.851234
296.598694	1089.403809	8463.350586	3310.926514	30.126644
296.972931	1089.016602	8729.597656	3415.541504	30.449581
297.347107	1088.586426	8935.946289	3501.165039	30.743826
297.721283	1087.898071	9061.037109	3559.193604	30.995262
298.095367	1089.769409	9098.051758	3592.832031	31.255922
298.469452	1092.737427	9080.931641	3605.500244	31.455954
298.843475	1092.199707	9037.636719	3609.500732	31.682348
299.217529	1094.587158	8972.337891	3604.274902	31.857922
299.591492	1096.436890	8892.672852	3593.112305	32.024113
299.965424	1098.135864	8774.442383	3565.732178	32.145618
300.339325	1102.179565	8594.958008	3521.425781	32.287704
300.713196	1103.513062	8374.263672	3459.202881	32.399544
301.087036	1105.448730	8138.126465	3387.473389	32.448872
301.460815	1104.975586	7937.585938	3326.691650	32.516357
301.834564	1103.771118	7774.533203	3280.428223	32.629814
302.208282	1103.125854	7649.119141	3236.551514	32.591324
302.582001	1103.297974	7531.814453	3199.149170	32.602406
302.955658	1103.297974	7423.306641	3162.090820	32.575794
303.329254	1100.889038	7332.241699	3129.075928	32.548100
303.702820	1101.276245	7248.747070	3103.137451	32.563980
304.076416	1100.910645	7176.007813	3080.295410	32.581944
304.449921	1099.491089	7122.452637	3057.174805	32.503674
304.823395	1099.749146	7062.165527	3038.290527	32.512680
305.196838	1099.426636	7003.878418	3017.814697	32.490536
305.570251	1097.921021	6932.858887	2993.983643	32.494991
305.943604	1096.479980	6870.485840	2970.109863	32.449394
306.316986	1096.350952	6825.146973	2959.915039	32.529770
306.690277	1094.759399	6800.218750	2952.258057	32.556515
307.063507	1094.200073	6800.971680	2951.225830	32.540741
307.436768	1095.038940	6830.372070	2959.829102	32.514069
307.809937	1092.328979	6880.078125	2970.583008	32.452236
308.183136	1093.081665	6951.484375	2991.682617	32.408165
308.556244	1091.640747	7039.259277	3025.170410	32.509308
308.929321	1092.802002	7145.702637	3056.056152	32.434933
309.302399	1091.963379	7244.488770	3086.059570	32.411018
309.675446	1093.597778	7353.104492	3118.020508	32.341568
310.048401	1095.167969	7449.568359	3152.498291	32.376465
310.421356	1093.662354	7553.624512	3180.996338	32.311863
310.794281	1094.049438	7670.606445	3216.656494	32.275352
311.167145	1096.264771	7784.168945	3254.252930	32.267033
311.539978	1100.437378	7864.242676	3277.911621	32.193035
311.912781	1102.588135	7910.098145	3288.708740	32.113369
312.285553	1101.147095	7899.667480	3284.536133	32.115650
312.658295	1102.308472	7851.940430	3263.630371	32.021328
313.031006	1101.254639	7786.728027	3239.971680	31.990509
313.403656	1101.792358	7728.354980	3220.571045	31.974026
313.776276	1101.663208	7684.435547	3207.515625	31.990358
314.148865	1102.029053	7688.415527	3198.288818	31.827158
314.521454	1105.040161	7694.351563	3199.278320	31.782354
314.893982	1103.147583	7677.596680	3196.266602	31.837179
315.266449	1101.018311	7620.212891	3173.941650	31.797232
315.638885	1095.899292	7539.772949	3149.293701	31.865841
316.011322	1094.544189	7452.429199	3123.914063	31.918947
316.383667	1094.759277	7385.065430	3098.340820	31.851892
316.756042	1094.458130	7327.316895	3077.585693	31.817303
317.128326	1094.049561	7277.848145	3060.744629	31.803995
317.500610	1094.329102	7220.959473	3041.603027	31.783768
317.872833	1094.157104	7145.443848	3015.126465	31.744808
318.245087	1094.608643	7047.453613	2985.681885	31.767555
318.617218	1093.468872	6948.925293	2953.656494	31.768448
318.989319	1094.780762	6877.604980	2926.384277	31.673166
319.361420	1097.684448	6835.212402	2910.597412	31.597458
319.733490	1100.889160	6807.423828	2896.659912	31.468674
320.105530	1099.792114	6786.690430	2888.487061	31.452908
320.477509	1100.566528	6764.343750	2883.153076	31.473457
320.849457	1101.512817	6742.125488	2875.474854	31.449810
321.221375	1099.899780	6731.974609	2871.086914	31.448217
321.593231	1100.200806	6729.565430	2868.742432	31.416363
321.965088	1100.802979	6731.823242	2872.377441	31.460983
322.336884	1102.459106	6746.857422	2876.033691	31.421854
322.708618	1100.265381	6786.432617	2881.840820	31.331747
323.080414	1101.254761	6844.159668	2896.036133	31.252153
323.452118	1102.179565	6947.871582	2926.255371	31.203762
323.823761	1099.899658	7085.007324	2971.680420	31.273972
324.195343	1102.846313	7229.239258	3013.707031	31.190632
324.566925	1101.061035	7372.160645	3052.657959	31.120489
324.938507	1099.189941	7509.081055	3092.770508	31.101629
325.310059	1099.964355	7620.814453	3127.656494	31.095518
325.681519	1099.663208	7736.399902	3164.048340	31.105427
326.052948	1098.802856	7852.091797	3192.976318	31.009680
326.424408	1094.458130	7916.723145	3214.398193	31.073843
326.795776	1097.275757	7936.703613	3227.496826	31.146191
327.167084	1095.705688	7906.787109	3217.603271	31.153605
327.538391	1093.490356	7825.529785	3191.987305	31.171787
327.909668	1095.296997	7721.903320	3155.078857	31.083508
328.280884	1095.813232	7621.073730	3125.527344	31.105486
328.652100	1096.802734	7529.922363	3097.867920	31.105673
329.023254	1097.856445	7453.332520	3076.768555	31.137119
329.394348	1098.200562	7390.443359	3054.980713	31.098295
329.765442	1097.834839	7310.196777	3026.697754	31.048786
330.136475	1098.351074	7226.937988	3002.135742	31.064007
330.507538	1099.878174	7159.510742	2978.046387	30.994753
330.878479	1097.619873	7106.687500	2959.527832	30.984974
331.249420	1098.673706	7078.705078	2951.763428	30.987961
331.620331	1097.168091	7080.082520	2952.860352	31.016527
331.991211	1096.092896	7099.223633	2962.065674	31.083326
332.362030	1094.716309	7135.120605	2971.980957	31.078461
332.732819	1093.877441	7177.190430	2985.660156	31.097902
333.103577	1092.888184	7218.851074	2992.757813	31.013405
333.474304	1093.103271	7245.328125	3003.812744	31.057213
333.845001	1093.103271	7266.728516	3014.567139	31.123755
334.215668	1095.318481	7282.107422	3022.030273	31.142355
334.586273	1096.221802	7310.819824	3034.074951	31.182276
334.956818	1097.490845	7336.048340	3042.441406	31.176287
335.327362	1096.437012	7358.523926	3052.786621	31.241177
335.697876	1099.534058	7373.127930	3057.712402	31.213024
336.068329	1099.964355	7380.677734	3056.701416	31.154694
336.438751	1099.964233	7374.892578	3057.346680	31.193703
336.809174	1103.233521	7369.923828	3060.078369	31.226130
337.179504	1103.018433	7381.000000	3070.961182	31.346745
337.549896	1103.469971	7413.283203	3083.220947	31.375746
337.920135	1105.814331	7465.849609	3100.190430	31.357941
338.290375	1104.115234	7520.394043	3119.956787	31.417612
338.660614	1103.835815	7566.679688	3133.764648	31.409220
339.030792	1104.975708	7605.523438	3150.799072	31.471554
339.400940	1107.556641	7646.431152	3162.649902	31.428854
339.771027	1106.309204	7679.596680	3178.307861	31.521496
340.141083	1106.825317	7714.590820	3194.094727	31.588129
340.511139	1107.965210	7751.798828	3206.246826	31.582396
340.881134	1105.642456	7796.600098	3222.550049	31.638338
341.251068	1105.599243	7825.829590	3231.260742	31.630785
341.621002	1104.373291	7840.841797	3239.864014	31.700447
341.990875	1101.233154	7849.101563	3241.046631	31.710955
342.360718	1099.964233	7858.995117	3240.530518	31.669724
342.730560	1100.136230	7879.062012	3249.047607	31.699881
343.100311	1097.834961	7921.325195	3266.834473	31.787245
343.470032	1097.383301	7984.279297	3290.924072	31.850935
343.839752	1097.125122	8068.074707	3320.798584	31.899145
344.209442	1098.028564	8161.526855	3352.243164	31.913572
344.579041	1096.523071	8264.938477	3388.463135	31.972755
344.948639	1095.813232	8365.853516	3418.595947	31.950068
345.318176	1098.845825	8455.262695	3448.448975	31.939503
345.687714	1098.286621	8552.909180	3476.839844	31.907091
346.057190	1098.200562	8625.068359	3505.789307	31.986597
346.426636	1100.136230	8678.581055	3530.157959	32.064915
346.796051	1099.297363	8703.013672	3541.858398	32.123253
347.165405	1099.985596	8698.797852	3537.427490	32.076614
347.534729	1099.598633	8657.610352	3523.683838	32.073055
347.904083	1099.770752	8593.752930	3500.605713	32.036839
348.273315	1099.211426	8511.786133	3476.624023	32.072697
348.642517	1099.491089	8436.227539	3452.642822	32.073551
349.011719	1099.749146	8361.422852	3431.479004	32.110088
349.380890	1096.781006	8308.834961	3416.165039	32.159828
349.749969	1097.942505	8260.614258	3403.153076	32.183666
350.119049	1101.147217	8238.375977	3395.388428	32.144707
350.488098	1102.308716	8235.384766	3397.023438	32.170059
350.857117	1103.534668	8238.632813	3404.830566	32.253178
351.226074	1102.179565	8268.012695	3418.767822	32.328251
351.595001	1102.910889	8313.008789	3435.823486	32.356186
351.963867	1102.910889	8365.336914	3456.750732	32.411205
352.332764	1099.813721	8432.206055	3482.861572	32.500275
352.701538	1099.146973	8501.246094	3507.380615	32.534470
353.070343	1100.738525	8591.322266	3538.094482	32.538933
353.439056	1100.867676	8685.075195	3575.239014	32.625313
353.807770	1101.233276	8792.744141	3615.717041	32.691677
354.176453	1100.243896	8898.822266	3652.796631	32.731003
354.545105	1096.781128	9022.581055	3698.479736	32.825695
354.913666	1096.931641	9173.868164	3750.357178	32.851879
355.282227	1098.652344	9334.511719	3805.890625	32.871353
355.650757	1095.770264	9501.285156	3863.618652	32.928959
356.019226	1095.899292	9686.339844	3927.132080	32.957947
356.387695	1097.275757	9897.461914	3998.968994	32.973091
356.756104	1097.727417	10147.257813	4086.011475	33.021427
357.124451	1096.458496	10424.130859	4186.153320	33.123966
357.492828	1095.856201	10681.905273	4274.271484	33.156677
357.861084	1096.716553	10896.963867	4345.162109	33.146568
358.229401	1096.436890	11065.134766	4408.353027	33.223156
358.597595	1100.028687	11179.878906	4446.830566	33.202892
358.965759	1098.308105	11285.785156	4479.544434	33.190125
359.333923	1097.576904	11397.927734	4518.753418	33.214176
359.702057	1099.770630	11556.829102	4575.190430	33.235157
360.070129	1098.329590	11736.874023	4641.435547	33.304424
360.438141	1100.695435	11947.889648	4718.648926	33.353821
360.806122	1102.717163	12195.875977	4804.272461	33.367908
361.174133	1104.502441	12475.975586	4898.951172	33.368137
361.542053	1106.201660	12787.734375	5008.061523	33.401951
361.909912	1104.782104	13059.295898	5107.084473	33.479424
362.277771	1104.072266	13289.452148	5181.953613	33.465363
362.645599	1102.523560	13435.535156	5231.960449	33.482796
363.013367	1101.684937	13487.328125	5253.855469	33.524059
363.381134	1101.878540	13454.527344	5243.294922	33.526546
363.748810	1100.824707	13341.522461	5205.591309	33.533764
364.116455	1101.792480	13151.778320	5145.153320	33.554901
364.484100	1100.136353	12877.100586	5051.442383	33.551144
364.851715	1097.426270	12500.042969	4923.190430	33.551632
365.219238	1095.641113	12017.209961	4759.922852	33.550877
365.586761	1094.071167	11496.714844	4584.826172	33.556419
365.954224	1092.587036	11045.755859	4433.581543	33.567146
366.321686	1092.113770	10687.518555	4314.577637	33.583408
366.689117	1093.275269	10452.758789	4235.105469	33.568413
367.056458	1096.824097	10290.286133	4180.625488	33.543419
367.423737	1097.533936	10172.636719	4144.664063	33.576813
367.791077	1098.630859	10063.891602	4110.229980	33.591873
368.158295	1099.362061	9978.162109	4077.343750	33.540363
368.525543	1099.899658	9899.936523	4051.383545	33.539448
368.892700	1102.222534	9826.788086	4028.649414	33.542377
369.259827	1103.233521	9775.147461	4012.110107	33.543648
369.626953	1104.567017	9742.949219	3999.269775	33.509777
369.994019	1105.083130	9712.256836	3988.386475	33.498837
370.361053	1105.814453	9696.125977	3984.041992	33.505508
370.728027	1104.201294	9690.146484	3984.945557	33.551857
371.094971	1102.545166	9704.665039	3989.612549	33.562279
371.461914	1099.792114	9732.152344	3997.570557	33.568783
371.828796	1099.964355	9764.951172	4010.088379	33.584866
372.195618	1099.383545	9808.225586	4022.347656	33.563179
372.562408	1099.598633	9839.046875	4035.467773	33.593300
372.929199	1098.867310	9875.116211	4053.211670	33.662949
373.295898	1096.544434	9908.454102	4067.063232	33.710270
373.662598	1097.576782	9953.125977	4079.602295	33.674088
374.029236	1098.093018	9996.227539	4092.464111	33.651672
374.395844	1098.802856	10033.027344	4104.272461	33.639961
374.762421	1100.566528	10077.097656	4117.628906	33.610561
375.128967	1099.555542	10134.545898	4135.028809	33.596863
375.495483	1103.448608	10215.415039	4159.268066	33.536331
375.861908	1101.125854	10344.572266	4205.725586	33.587036
376.228333	1100.609497	10513.862305	4267.862305	33.646744
376.594727	1098.265137	10751.439453	4344.818359	33.631977
376.961090	1097.770386	11016.181641	4430.893066	33.605408
377.327393	1101.211792	11269.352539	4521.721191	33.639477
377.693665	1099.620117	11461.527344	4595.085449	33.733803
378.059906	1100.243896	11601.781250	4648.425293	33.787258
378.426086	1101.190186	11685.490234	4683.074707	33.841488
378.792267	1100.781494	11717.967773	4697.871582	33.879879
379.158386	1100.200806	11706.439453	4700.518066	33.945282
379.524445	1098.006958	11674.457031	4697.291992	34.031128
379.890503	1099.964233	11605.610352	4677.375488	34.052269
380.256531	1100.996582	11494.047852	4643.521484	34.085514
380.622467	1102.953857	11331.468750	4593.364258	34.124313
380.988403	1103.255005	11130.669922	4533.679688	34.210461
381.354279	1101.104126	10936.257813	4473.844238	34.292706
381.720154	1099.426636	10784.260742	4428.677734	34.375923
382.085968	1100.738525	10692.442383	4399.555664	34.392399
382.451752	1099.491089	10663.148438	4394.759766	34.456154
382.817474	1100.028809	10677.924805	4404.158203	34.497444
383.183197	1101.512939	10747.503906	4431.344238	34.520363
383.548859	1101.211792	10817.749023	4460.552246	34.573433
383.914490	1099.491211	10895.329102	4492.040039	34.632553
384.280060	1099.276123	10966.520508	4524.323730	34.711288
384.645599	1098.802856	11036.163086	4560.113281	34.831287
385.011108	1096.781128	11120.754883	4594.698242	34.895512
385.376617	1095.426147	11219.089844	4631.025391	34.924107
385.742035	1095.684082	11332.500977	4673.826172	34.953659
386.107452	1093.361328	11437.826172	4720.477051	35.063347
386.472778	1093.210815	11530.417969	4765.170898	35.181442
386.838135	1090.823364	11626.559570	4806.552246	35.267864
387.203430	1090.328735	11692.825195	4841.309082	35.378277
387.568634	1089.446777	11741.561523	4873.979980	35.528465
387.933838	1091.296509	11771.308594	4897.058105	35.634434
388.299042	1091.855713	11806.624023	4922.308594	35.749283
388.664124	1089.403809	11833.939453	4937.515137	35.814590
389.029236	1092.931152	11843.661133	4955.280762	35.926392
389.394318	1094.114136	11856.931641	4972.659180	36.036522
389.759308	1094.157104	11859.254883	4988.726074	36.177738
390.124298	1094.415161	11897.474609	5012.599609	36.269211
390.489227	1096.178833	11985.441406	5051.206543	36.320438
390.854126	1096.350830	12100.639648	5115.128906	36.520107
391.218964	1097.748901	12246.528320	5184.298828	36.654682
391.583771	1097.641479	12404.568359	5253.382324	36.753937
391.948578	1094.372192	12542.930664	5320.659668	36.915455
392.313354	1092.436401	12655.502930	5374.751953	37.034428
392.678040	1094.522705	12759.365234	5429.296387	37.161011
393.042694	1091.554565	12871.121094	5488.164063	37.324036
393.407349	1093.705322	12997.244141	5550.709473	37.442680
393.771942	1094.630371	13137.218750	5617.298340	37.555614
394.136505	1093.985107	13233.640625	5672.423828	37.714733
394.501007	1091.145996	13250.416016	5699.975586	37.903835
394.865479	1092.113770	13191.269531	5688.748535	37.991367
395.229919	1090.715820	13059.208984	5652.486328	38.114826
395.594360	1094.264771	12900.953125	5608.480469	38.234394
395.958710	1098.007080	12755.558594	5559.635742	38.272434
396.323029	1098.953491	12622.725586	5525.330078	38.410828
396.687286	1099.254517	12495.181641	5489.476074	38.524483
397.051544	1100.932129	12373.447266	5451.449219	38.594021
397.415771	1098.888794	12218.524414	5403.895020	38.715355
397.779938	1099.426636	12045.384766	5353.932129	38.868279
398.144043	1100.803101	11876.718750	5303.323730	38.999195
398.508148	1099.383545	11731.345703	5254.436035	39.080772
398.872192	1099.039429	11617.761719	5220.991211	39.186810
399.236237	1099.297485	11542.204102	5204.279297	39.308807
399.600189	1097.060669	11490.456055	5193.439453	39.413288
399.964111	1095.920776	11451.311523	5193.976563	39.574131
400.328003	1094.866943	11420.555664	5192.363770	39.682556
400.691925	1093.081787	11410.338867	5202.042480	39.826099
401.055695	1093.554932	11395.217773	5210.452637	39.963425
401.419495	1093.404297	11390.186523	5222.152344	40.097458
401.783234	1092.522583	11416.532227	5237.810059	40.151917
402.146942	1093.490356	11432.211914	5254.177734	40.243732
402.510620	1096.071167	11475.981445	5290.075195	40.405010
402.874237	1096.910034	11545.322266	5329.606934	40.510429
403.237823	1097.942505	11646.604492	5384.752930	40.638428
403.601379	1097.899536	11783.717773	5452.503418	40.751244
403.964874	1097.598389	11953.416016	5534.212402	40.868542
404.328369	1098.845825	12137.160156	5618.480957	40.944977
404.691772	1101.899902	12298.964844	5696.877930	41.037346
405.055176	1100.394409	12461.372070	5775.511230	41.150654
405.418549	1100.760010	12608.122070	5845.584473	41.232944
405.781860	1100.953613	12710.436523	5899.956543	41.336926
406.145142	1100.372925	12804.383789	5946.457520	41.405331
406.508362	1096.910034	12858.259766	5972.417480	41.453640
406.871552	1096.071289	12872.971680	5990.806152	41.562164
407.234741	1095.533569	12855.744141	5991.774902	41.633957
407.597870	1096.286377	12795.436523	5981.214355	41.754551
407.960938	1099.082397	12714.909180	5955.555176	41.809097
408.323975	1098.759766	12628.490234	5930.046387	41.902859
408.686981	1099.318970	12567.297852	5914.604004	41.988960
409.049957	1099.405029	12529.293945	5908.151367	42.071678
409.412903	1100.050293	12531.552734	5921.916504	42.180511
409.775787	1099.942749	12562.309570	5943.726074	42.258141
410.138611	1100.652466	12608.766602	5974.976563	42.355541
410.501434	1103.900269	12662.795898	6010.357422	42.447456
410.864227	1104.609985	12703.165039	6038.081543	42.535229
411.226929	1104.502441	12739.277344	6069.654785	42.675102
411.589630	1104.696045	12787.863281	6096.411133	42.725700
411.952271	1103.835815	12802.446289	6116.671875	42.849842
412.314911	1103.083008	12808.704102	6131.254883	42.955193
412.677490	1101.577393	12819.889648	6138.739258	42.985390
413.040009	1104.545532	12832.342773	6143.965820	42.969883
413.402496	1102.523682	12817.157227	6139.427734	42.996685
413.764984	1102.652832	12790.637695	6134.416016	43.050735
414.127380	1100.953613	12777.344727	6132.845703	43.094585
414.489777	1100.329956	12783.412109	6140.374512	43.139683
414.852112	1101.104248	12831.394531	6161.710449	43.141357
415.214386	1100.932129	12908.696289	6184.981445	43.056835
415.576660	1100.222290	13008.063477	6228.277832	43.064529
415.938904	1098.695190	13161.844727	6290.134277	43.035519
416.301086	1101.211792	13343.672852	6360.551758	42.959824
416.663208	1101.512817	13534.774414	6441.874512	42.952221
417.025299	1097.964111	13747.102539	6537.434082	43.002689
417.387390	1097.641479	13993.647461	6642.457520	42.996384
417.749420	1097.383301	14281.855469	6772.990234	43.047661
418.111389	1097.576904	14608.261719	6918.039551	43.080444
418.473328	1096.738037	14982.374023	7080.446777	43.092796
418.835266	1094.673340	15378.788086	7253.135742	43.114063
419.197144	1096.781128	15816.389648	7444.104980	43.121552
419.558960	1096.092896	16293.288086	7654.690430	43.156631
419.920746	1095.684204	16814.921875	7891.085449	43.229843
420.282471	1095.899292	17418.888672	8162.645020	43.293209
420.644226	1094.608887	18049.289063	8450.637695	43.386421
421.005920	1092.393433	18652.761719	8722.886719	43.452919
421.367523	1092.909668	19205.388672	8978.853516	43.538734
421.729126	1092.436401	19689.105469	9198.063477	43.586445
422.090668	1091.640503	20103.029297	9388.281250	43.640373
422.452179	1092.414917	20437.283203	9549.419922	43.717045
422.813660	1092.156860	20766.935547	9709.847656	43.800697
423.175110	1089.382324	21078.695313	9862.209961	43.887592
423.536469	1089.016724	21354.472656	9998.528320	43.964035
423.897858	1088.328369	21574.929688	10113.639648	44.054703
424.259155	1086.242065	21651.544922	10171.540039	44.177799
424.620453	1086.134644	21666.791016	10193.477539	44.251957
424.981689	1091.188965	21630.486328	10198.597656	44.341381
425.342865	1092.092285	21562.048828	10185.778320	44.424545
425.704041	1091.769653	21472.617188	10162.571289	44.506500
426.065186	1093.769775	21369.960938	10128.222656	44.556953
426.426239	1094.565674	21230.953125	10075.377930	44.599922
426.787262	1096.522949	20996.988281	9987.603516	44.677750
427.148254	1096.888672	20678.130859	9863.050781	44.768162
427.509216	1098.028442	20293.246094	9706.494141	44.846931
427.870178	1098.222046	19842.652344	9502.855469	44.838036
428.231049	1097.942383	19410.876953	9304.702148	44.814011
428.591858	1100.179321	18984.113281	9119.194336	44.839214
428.952698	1098.910278	18575.439453	8930.977539	44.814777
429.313446	1099.189941	18204.597656	8762.030273	44.797764
429.674164	1101.985962	17855.242188	8607.430664	44.799919
430.034851	1101.147217	17533.355469	8467.500000	44.828743
430.395477	1100.244019	17253.707031	8349.356445	44.876522
430.756104	1099.297607	17029.400391	8244.526367	44.853626
431.116699	1097.297241	16851.013672	8165.635742	44.867752
431.477203	1095.727295	16712.544922	8095.132813	44.819664
431.837646	1097.318848	16644.773438	8076.333984	44.888474
432.198090	1098.243652	16616.832031	8072.247070	44.939678
432.558502	1095.619629	16627.585938	8081.689453	44.978657
432.918884	1095.641113	16653.998047	8104.466797	45.048622
433.279205	1094.049561	16710.177734	8140.041016	45.119965
433.639465	1093.533325	16786.314453	8189.595703	45.218643
433.999756	1095.060425	16865.056641	8237.214844	45.289513
434.359924	1097.211182	16953.216797	8278.446289	45.290318
434.720093	1097.899536	17034.044922	8332.022461	45.394432
435.080200	1099.641602	17095.513672	8378.480469	45.504482
435.440277	1101.211670	17160.146484	8427.475586	45.621105
435.800354	1099.275879	17185.830078	8457.090820	45.738911
436.160370	1097.340210	17192.820313	8481.029297	45.874298
436.520325	1099.189819	17192.820313	8503.032227	46.004799
436.880249	1098.265137	17205.078125	8524.906250	46.108696
437.240112	1098.050171	17215.617188	8546.306641	46.212036
437.599976	1098.265137	17262.482422	8581.644531	46.295959
437.959808	1097.662964	17333.457031	8638.166992	46.443703
438.319519	1096.350952	17413.857422	8702.154297	46.611305
438.679260	1091.145996	17536.646484	8780.012695	46.753620
439.038940	1092.586914	17707.978516	8876.454102	46.847332
439.398590	1092.414795	17931.275391	9004.147461	46.984962
439.758179	1092.866577	18226.859375	9157.628906	47.068787
440.117767	1095.124878	18574.494141	9347.781250	47.213696
440.477295	1095.490601	18934.453125	9533.459961	47.300785
440.836792	1095.920776	19279.357422	9719.441406	47.425140
441.196198	1098.867310	19575.050781	9882.256836	47.538982
441.555603	1098.544800	19804.392578	10013.735352	47.659912
441.914978	1098.265137	19959.164063	10114.263672	47.802589
442.274323	1098.738403	20082.167969	10189.132813	47.885944
442.633575	1103.728149	20140.388672	10237.118164	47.977898
442.992859	1103.685181	20138.429688	10256.281250	48.083630
443.352051	1103.384033	20087.412109	10246.709961	48.163258
443.711182	1105.491943	19969.117188	10213.715820	48.284588
444.070313	1103.921753	19825.337891	10152.353516	48.331982
444.429382	1103.771240	19678.630859	10098.584961	48.424664
444.788452	1103.448608	19573.458984	10063.355469	48.510571
445.147430	1101.641968	19542.746094	10069.226563	48.628246
445.506409	1097.963989	19594.320313	10110.995117	48.728687
445.865295	1094.264771	19736.939453	10180.853516	48.740803
446.224182	1092.888184	19956.279297	10305.964844	48.841042
446.583038	1093.899048	20226.097656	10446.283203	48.882954
446.941833	1092.630005	20505.294922	10596.000977	48.954491
447.300598	1093.597778	20762.875000	10727.501953	48.979454
447.659302	1091.877197	20991.054688	10848.397461	49.029766
448.018005	1093.791504	21158.558594	10941.980469	49.082001
448.376648	1093.597900	21260.806641	11010.073242	49.171284
448.735229	1096.652100	21288.230469	11038.399414	49.237099
449.093781	1098.157715	21246.203125	11027.560547	49.282211
449.452301	1100.308350	21122.595703	10967.165039	49.279369
449.810791	1103.577759	20923.970703	10887.176758	49.361275
450.169220	1103.900269	20623.998047	10742.169922	49.376133
450.527618	1102.373169	20295.289063	10592.603516	49.446526
450.885956	1103.706665	20003.423828	10453.897461	49.472649
451.244263	1103.771118	19716.507813	10337.561523	49.610062
451.602539	1104.781982	19494.673828	10237.956055	49.664097
451.960785	1104.480835	19310.414063	10160.527344	49.742283
452.318970	1108.094238	19172.310547	10095.100586	49.750320
452.677124	1104.609863	19023.412109	10027.974609	49.798893
453.035248	1104.222778	18869.242188	9953.277344	49.811680
453.393311	1105.599243	18696.167969	9881.181641	49.887997
453.751312	1104.695923	18529.070313	9802.742188	49.918839
454.109314	1107.212402	18388.814453	9745.336914	49.984516
454.467285	1109.169800	18245.613281	9680.533203	50.018333
454.825195	1108.739502	18072.367188	9601.835938	50.066513
455.183044	1109.943848	17904.023438	9519.566406	50.074924
455.540894	1106.545654	17691.955078	9414.285156	50.090649
455.898651	1106.674683	17504.232422	9319.069336	50.083031
456.256378	1101.856934	17306.982422	9221.787109	50.107174
456.614105	1103.061401	17179.052734	9155.113281	50.087437
456.971771	1104.050781	17093.775391	9115.042969	50.100876
457.329407	1101.749512	17093.128906	9117.667969	50.126499
457.686981	1101.684814	17167.417969	9160.576172	50.161991
458.044525	1099.598633	17346.685547	9257.125000	50.209164
458.402008	1099.189941	17633.281250	9407.703125	50.250801
458.759460	1098.458618	18066.625000	9637.043945	50.321201
459.116913	1096.329468	18630.761719	9920.369141	50.324074
459.474274	1098.286621	19308.283203	10264.304688	50.335087
459.831635	1098.630859	19928.597656	10587.547852	50.392639
460.188904	1098.738403	20480.904297	10872.529297	50.426723
460.546173	1098.587769	20918.871094	11106.020508	50.490868
460.903381	1097.684448	21253.000000	11279.353516	50.516045
461.260559	1098.093262	21482.876953	11403.045898	50.552185
461.617706	1101.082764	21610.376953	11467.872070	50.546783
461.974762	1100.803101	21586.716797	11454.000000	50.538128
462.331848	1099.017822	21431.537109	11377.108398	50.550011
462.688843	1099.856812	21097.753906	11210.163086	50.556850
463.045837	1099.856812	20608.511719	10968.757813	50.587299
463.402740	1100.028931	20001.488281	10669.022461	50.625687
463.759613	1098.759888	19425.611328	10379.544922	50.640369
464.116486	1099.017944	18915.269531	10125.641602	50.665112
464.473267	1100.222290	18506.187500	9914.412109	50.638901
464.830048	1099.899658	18187.908203	9765.016602	50.708763
465.186737	1101.491333	17932.179688	9638.291016	50.721634
465.543457	1098.910522	17749.082031	9548.453125	50.747482
465.900085	1096.135864	17683.847656	9523.869141	50.807091
466.256683	1093.877563	17708.130859	9538.989258	50.830517
466.613251	1093.081665	17779.880859	9582.736328	50.876472
466.969757	1092.156738	17868.923828	9640.163086	50.951447
467.326233	1092.974121	17954.439453	9688.684570	50.978436
467.682678	1093.468750	18007.349609	9719.290039	50.998474
468.039093	1094.329102	18032.878906	9739.271484	51.037083
468.395416	1091.554688	18023.759766	9745.766602	51.110954
468.751740	1089.511353	18002.896484	9745.981445	51.181179
469.108032	1089.511353	17967.236328	9732.603516	51.210052
469.464233	1089.877075	17925.876953	9721.139648	51.266705
469.820435	1095.770264	17833.671875	9685.350586	51.318138
470.176575	1097.533936	17685.136719	9621.235352	51.385971
470.532715	1099.340576	17518.494141	9536.858398	51.388260
470.888763	1103.470093	17376.755859	9465.495117	51.384983
471.244751	1103.190430	17260.076172	9412.263672	51.427444
471.600769	1103.534668	17199.617188	9396.197266	51.519756
471.956696	1104.029297	17199.033203	9399.336914	51.539642
472.312592	1104.717651	17266.589844	9445.126953	51.605465
472.668457	1105.964966	17356.882813	9502.467773	51.667870
473.024292	1107.126465	17486.939453	9580.928711	51.733212
473.380035	1106.954468	17572.779297	9634.053711	51.786655
473.735779	1106.007935	17660.789063	9693.975586	51.876057
474.091492	1104.953979	17747.638672	9749.465820	51.941807
474.447113	1102.179565	17866.193359	9822.529297	52.018269
474.802765	1098.394165	17964.505859	9896.194336	52.162586
475.158295	1098.587769	18087.423828	9985.839844	52.312305
475.513824	1099.491089	18213.548828	10074.214844	52.440651
475.869324	1098.114624	18362.341797	10174.442383	52.573036
476.224762	1098.781372	18489.732422	10264.797852	52.705666
476.580170	1100.007202	18638.607422	10357.540039	52.783764
476.935516	1099.082397	18791.574219	10466.006836	52.942936
477.290863	1099.469604	19031.796875	10617.746094	53.078865
477.646118	1096.867065	19283.615234	10765.225586	53.161556
478.001373	1097.533936	19573.435547	10948.217773	53.316387
478.356537	1098.609253	19855.857422	11131.250977	53.486748
478.711700	1100.501953	20156.970703	11318.606445	53.620136
479.066833	1099.254395	20462.707031	11504.329102	53.735634
479.421875	1097.555298	20789.414063	11705.686523	53.870640
479.776917	1098.544678	21111.562500	11921.541016	54.079781
480.131897	1098.222046	21482.617188	12155.139648	54.242073
480.486847	1097.146606	21913.056641	12430.034180	54.443394
480.841766	1098.781372	22435.853516	12751.815430	54.614025
481.196594	1098.953491	23050.208984	13133.627930	54.824539
481.551453	1098.093262	23857.900391	13628.440430	55.054718
481.906219	1095.211060	24897.945313	14247.141602	55.253864
482.260986	1094.479736	26347.199219	15110.325195	55.502323
482.615662	1092.135254	28416.939453	16369.061523	55.908638
482.970306	1093.640991	31148.205078	18108.695313	56.613880
483.324951	1093.619385	34243.640625	20232.419922	57.733906
483.679504	1092.673096	37399.925781	22480.873047	58.908886
484.034027	1092.113892	40339.859375	24521.404297	59.695889
484.388519	1091.597656	42912.027344	26221.226563	60.089359
484.742981	1089.898560	45000.953125	27564.037109	60.290375
485.097351	1088.586426	46633.558594	28618.210938	60.444927
485.451721	1092.759033	47805.765625	29411.494141	60.622803
485.806030	1096.501465	48616.898438	29993.460938	60.809589
486.160309	1096.114258	49095.046875	30394.242188	61.039124
486.514557	1098.135986	49099.496094	30528.492188	61.311504
486.868744	1098.265137	48648.539063	30327.607422	61.470398
487.222931	1097.856567	47882.898438	29803.455078	61.356358
487.577026	1099.168579	46976.785156	29111.607422	61.059055
487.931122	1100.071777	46097.984375	28531.794922	60.962208
488.285126	1101.964478	45262.703125	28082.533203	61.096279
488.639099	1103.642090	44510.371094	27739.048828	61.362389
488.993042	1103.706543	43848.421875	27482.738281	61.712967
489.346954	1101.727905	43273.769531	27256.343750	62.018848
489.700836	1102.609741	42718.285156	27059.912109	62.373859
490.054626	1103.233521	42111.195313	26834.292969	62.746494
490.408417	1100.889160	41562.910156	26629.449219	63.092651
490.762146	1102.093628	41075.882813	26475.324219	63.474670
491.115814	1103.491577	40714.914063	26400.730469	63.863495
491.469513	1103.599121	40368.914063	26350.167969	64.297379
491.823090	1102.007324	39915.222656	26214.212891	64.700142
492.176666	1101.813965	39426.257813	26046.150391	65.087273
492.530182	1100.609375	38929.359375	25881.033203	65.506851
492.883698	1099.813721	38390.558594	25663.373047	65.870384
493.237091	1099.017944	37800.746094	25423.320313	66.275635
493.590515	1099.232910	37121.738281	25105.175781	66.641518
493.943878	1098.243652	36263.609375	24658.605469	66.998764
494.297150	1101.233276	35105.378906	23999.189453	67.338722
494.650452	1100.630981	33647.519531	23135.082031	67.700638
495.003662	1100.093262	31910.638672	22063.617188	68.040092
495.356873	1099.792114	30217.744141	21011.314453	68.382286
495.710022	1100.028687	28792.429688	20152.734375	68.801208
496.063110	1098.329590	27677.992188	19527.751953	69.336555
496.416168	1098.867188	26896.216797	19107.980469	69.809937
496.769165	1100.544922	26366.167969	18859.843750	70.290367
497.122162	1100.286865	26053.806641	18752.388672	70.739929
497.475098	1100.566528	25846.599609	18708.962891	71.156441
497.828003	1100.803223	25765.664063	18755.398438	71.577927
498.180847	1099.190063	25726.951172	18830.957031	71.999100
498.533661	1096.479980	25654.445313	18883.179688	72.427414
498.886444	1097.598267	25577.039063	18940.927734	72.891083
499.239136	1096.221802	25444.720703	18936.970703	73.272476
499.591827	1097.727417	25234.654297	18851.087891	73.552696
499.944427	1098.222168	24928.873047	18696.294922	73.846382
500.297089	1096.243286	24563.923828	18517.240234	74.233994
500.649628	1095.899292	24183.425781	18311.494141	74.566650
501.002136	1097.017700	23780.343750	18099.123047	74.954201
501.354584	1097.232788	23425.330078	17923.468750	75.359024
501.707001	1100.394409	23066.189453	17726.302734	75.689995
502.059387	1102.523804	22777.572266	17570.822266	75.978142
502.411682	1104.524048	22528.509766	17441.644531	76.256210
502.764038	1104.265747	22331.023438	17344.513672	76.508377
503.116302	1104.480957	22180.294922	17305.390625	76.869675
503.468475	1104.803589	22081.445313	17302.701172	77.218735
503.820709	1104.954102	22042.277344	17323.888672	77.464218
504.172852	1105.943481	22012.984375	17339.029297	77.644112
504.524902	1106.136963	22011.242188	17380.326172	77.847916
504.876953	1104.588379	22025.222656	17426.416016	78.017845
505.228912	1102.631226	22043.330078	17467.023438	78.146355
505.580872	1100.222290	22069.484375	17519.544922	78.301865
505.932770	1096.953125	22046.945313	17544.044922	78.506432
506.284698	1098.996460	22020.857422	17559.035156	78.673874
506.636505	1100.695557	22023.373047	17588.287109	78.802490
506.988342	1100.179443	22017.480469	17598.224609	78.872726
507.340088	1100.136353	22023.845703	17636.335938	79.030914
507.691772	1100.674072	22037.267578	17668.189453	79.131859
508.043396	1099.684692	22092.435547	17734.820313	79.242287
508.395050	1100.308472	22172.833984	17816.851563	79.328613
508.746582	1101.555786	22285.621094	17929.146484	79.435135
509.098114	1101.039551	22428.003906	18061.398438	79.525421
509.449646	1099.405151	22588.648438	18204.083984	79.596466
509.801086	1100.200806	22787.533203	18363.564453	79.601135
510.152557	1097.447754	22997.281250	18535.005859	79.624161
510.503906	1094.909790	23199.820313	18694.832031	79.619965
510.855194	1096.114136	23391.392578	18860.080078	79.675911
511.206482	1096.028076	23587.716797	19006.419922	79.631157
511.557709	1094.587158	23787.632813	19164.417969	79.627174
511.908844	1096.458496	23983.898438	19312.908203	79.591469
512.260010	1095.275513	24123.050781	19425.697266	79.601357
512.611206	1094.415161	24226.591797	19487.664063	79.513695
512.962219	1096.178711	24295.806641	19528.335938	79.450218
513.313232	1099.512573	24345.337891	19547.822266	79.361816
513.664246	1099.899780	24347.125000	19543.648438	79.337418
514.015137	1101.663330	24320.863281	19516.568359	79.308952
514.366028	1103.362549	24279.220703	19483.726563	79.308235
514.716919	1103.319458	24214.181641	19419.738281	79.254585
515.067688	1103.706665	24113.310547	19328.158203	79.203674
515.418396	1106.158569	24022.310547	19236.125000	79.114357
515.769104	1105.857422	23951.248047	19161.191406	79.032722
516.119812	1105.857544	23936.923828	19131.769531	78.953438
516.470459	1104.136719	24019.449219	19164.226563	78.812325
516.821106	1103.943237	24165.898438	19272.798828	78.782806
517.171631	1102.631348	24438.595703	19470.263672	78.709549
517.522095	1104.072266	24824.949219	19753.738281	78.621315
517.872559	1101.104126	25355.875000	20135.654297	78.477554
518.222961	1099.491089	25922.587891	20544.351563	78.333740
518.573364	1099.878296	26497.068359	20948.875000	78.154305
518.923645	1097.447876	27009.025391	21313.478516	78.019295
519.273987	1095.813232	27444.949219	21624.572266	77.910561
519.624207	1095.017334	27744.255859	21824.898438	77.787895
519.974487	1094.845215	27967.314453	21963.044922	77.656425
520.324646	1097.146606	28054.812500	22011.480469	77.582138
520.674744	1099.426392	28052.123047	21952.548828	77.369339
521.024780	1100.351196	27905.179688	21799.689453	77.222420
521.374878	1100.415771	27644.673828	21552.650391	77.049561
521.724792	1102.588013	27274.068359	21218.048828	76.860229
522.074707	1100.544800	26863.738281	20854.626953	76.675598
522.424744	1100.136230	26471.169922	20513.445313	76.517609
522.774536	1100.265381	26182.986328	20249.046875	76.342522
523.124329	1099.082520	25963.087891	20025.427734	76.119453
523.474182	1100.846191	25892.238281	19922.919922	75.921814
523.823914	1101.426880	25940.138672	19909.326172	75.720108
524.173523	1102.029175	26151.929688	20025.017578	75.541168
524.523132	1100.588013	26546.710938	20286.234375	75.397133
524.872803	1100.007324	27100.238281	20665.076172	75.249596
525.222290	1098.544678	27838.675781	21172.580078	75.070816
525.571777	1098.695190	28641.482422	21734.435547	74.922485
525.921326	1100.544800	29516.044922	22332.683594	74.720268
526.270752	1100.996582	30439.126953	22992.183594	74.616844
526.620178	1103.706543	31463.101563	23708.226563	74.456421
526.969482	1103.663574	32721.966797	24616.492188	74.364609
527.318787	1102.416138	34311.453125	25774.892578	74.294472
527.668030	1102.416138	36333.511719	27295.982422	74.347870
528.017212	1100.588013	38582.175781	29088.658203	74.671524
528.366394	1098.243652	40807.421875	30915.031250	75.087898
528.715515	1099.964233	42803.152344	32498.373047	75.290192
529.064636	1102.201050	44375.453125	33685.851563	75.297432
529.413635	1101.125732	45543.597656	34532.777344	75.224556
529.762695	1100.652466	46308.406250	35049.546875	75.095291
530.111633	1098.028442	46743.621094	35280.800781	74.887344
530.460510	1096.415405	46786.746094	35243.035156	74.734894
530.809387	1096.996216	46388.996094	34861.222656	74.547882
531.158142	1095.017456	45484.238281	34106.292969	74.367775
531.506958	1094.006470	44063.546875	32919.242188	74.064644
531.855652	1096.759521	42402.140625	31443.341797	73.468834
532.204407	1096.049683	40807.140625	29969.736328	72.709381
532.552979	1095.081909	39555.570313	28804.193359	72.045654
532.901611	1093.963379	38680.625000	28008.738281	71.607254
533.250183	1090.522217	38107.992188	27470.908203	71.264694
533.598755	1091.511597	37671.503906	27069.138672	71.015945
533.947205	1093.834473	37317.117188	26741.701172	70.804924
534.295593	1093.770020	37026.246094	26461.625000	70.598686
534.643982	1093.146362	36790.921875	26244.068359	70.455147
534.992249	1098.329590	36565.519531	26039.701172	70.322372
535.340576	1099.211426	36345.882813	25822.705078	70.144196
535.688843	1096.867065	36093.421875	25581.279297	69.962349
536.037048	1098.351074	35689.480469	25212.394531	69.711639
536.385315	1097.727417	35053.160156	24689.658203	69.479103
536.733398	1093.404297	34230.691406	24023.685547	69.197823
537.081421	1097.963989	33336.515625	23315.986328	68.917557
537.429443	1098.781372	32512.695313	22673.257813	68.678093
537.777466	1099.964233	31796.349609	22111.404297	68.449234
538.125427	1099.491089	31195.392578	21628.271484	68.211220
538.473267	1100.652466	30718.154297	21233.363281	67.975723
538.821167	1096.157349	30342.189453	20901.923828	67.721207
539.169006	1093.490356	30042.281250	20633.501953	67.498543
539.516846	1095.404541	29785.906250	20399.839844	67.285110
539.864502	1094.393677	29725.533203	20301.419922	67.084389
540.212219	1093.597778	29960.894531	20391.388672	66.850014
540.559875	1096.415527	30618.244141	20758.142578	66.600639
540.907410	1095.189453	31609.419922	21362.087891	66.417862
541.254944	1091.812866	32749.218750	22079.658203	66.296799
541.602478	1088.629517	33840.988281	22752.861328	66.145561
541.949951	1091.081543	34812.960938	23357.085938	66.028358
542.297363	1090.995483	35665.558594	23861.794922	65.859978
542.644714	1090.952393	36393.113281	24283.501953	65.697250
542.992126	1094.909912	36898.488281	24553.945313	65.521484
543.339355	1094.909912	37133.890625	24650.601563	65.361702
543.686646	1095.641113	36962.300781	24469.181641	65.167877
544.033813	1096.028320	36350.503906	23996.689453	64.958160
544.380920	1098.544800	35273.101563	23233.287109	64.769653
544.728027	1098.157593	33893.148438	22257.080078	64.518761
545.075134	1099.577026	32485.080078	21243.103516	64.180992
545.422180	1102.609741	31191.500000	20333.271484	63.912830
545.769165	1100.136230	30101.513672	19557.455078	63.642902
546.116150	1101.512695	29163.873047	18887.804688	63.381317
546.463013	1103.620605	28333.876953	18294.138672	63.130211
546.809875	1101.147095	27652.351563	17807.324219	62.920601
547.156677	1100.222290	27041.158203	17354.171875	62.657528
547.503418	1099.340576	26523.564453	16983.330078	62.475807
547.850098	1099.555664	26053.443359	16640.384766	62.278191
548.196777	1099.060913	25603.150391	16322.925781	62.127853
548.543396	1099.684448	25154.019531	16010.822266	61.989395
548.890015	1099.921143	24654.173828	15666.974609	61.844688
549.236633	1099.577026	24106.105469	15286.796875	61.666058
549.583069	1099.383545	23500.394531	14876.531250	61.502346
549.929504	1100.953613	22837.970703	14435.165039	61.343334
550.275879	1100.846191	22184.296875	13992.574219	61.146198
550.622253	1102.136597	21534.345703	13554.196289	60.943287
550.968567	1102.953979	20971.779297	13173.653320	60.751949
551.314819	1105.255249	20489.205078	12834.214844	60.508617
551.661072	1104.029297	20128.861328	12583.837891	60.341183
552.007263	1102.029175	19904.488281	12410.677734	60.144520
552.353394	1103.190430	19757.716797	12282.081055	59.925884
552.699524	1104.480957	19663.253906	12191.727539	59.741264
553.045593	1102.373169	19617.462891	12123.502930	59.525124
553.391602	1104.631470	19596.880859	12076.722656	59.333454
553.737549	1101.168579	19576.876953	12031.040039	59.158062
554.083435	1101.770996	19533.453125	11973.634766	58.984653
554.429321	1103.706543	19478.607422	11898.830078	58.749287
554.775146	1101.942993	19381.414063	11806.881836	58.562630
555.120972	1101.018188	19274.023438	11712.827148	58.393250
555.466675	1102.115112	19112.755859	11588.123047	58.221180
555.812439	1104.222900	18910.880859	11429.586914	57.985973
556.158081	1103.556274	18680.765625	11263.824219	57.803646
556.503662	1102.824829	18449.339844	11093.889648	57.596954
556.849182	1104.739136	18225.054688	10933.247070	57.408447
557.194702	1103.061401	18018.554688	10782.690430	57.223446
557.540161	1104.588501	17818.185547	10639.039063	57.046066
557.885620	1104.330322	17654.017578	10516.851563	56.874317
558.231018	1102.050537	17501.242188	10401.288086	56.705463
558.576355	1100.265381	17381.789063	10305.641602	56.538788
558.921692	1102.115112	17289.044922	10224.385742	56.355782
559.266968	1101.985962	17192.560547	10144.160156	56.195469
559.612183	1100.007324	17111.517578	10072.796875	56.039619
559.957336	1100.157837	17059.187500	10014.983398	55.860699
560.302429	1099.211426	17023.355469	9974.569336	55.735222
560.647522	1098.673706	17005.095703	9954.459961	55.674282
560.992554	1097.211182	16996.341797	9918.024414	55.479847
561.337524	1097.168213	17005.804688	9901.785156	55.344887
561.682434	1095.275513	17022.130859	9883.569336	55.179089
562.027344	1095.662720	17028.236328	9864.749023	55.038731
562.372253	1099.039307	17038.152344	9845.047852	54.871365
562.717102	1099.189941	17022.064453	9816.163086	54.744968
563.061829	1097.813354	17045.335938	9796.139648	54.543434
563.406494	1096.974609	17039.208984	9773.103516	54.422291
563.751160	1093.253784	17025.033203	9748.391602	54.326248
564.095825	1093.963501	17028.648438	9730.238281	54.197964
564.440369	1093.060059	17044.304688	9703.675781	53.980839
564.784973	1095.146362	17087.515625	9703.697266	53.829117
565.129456	1094.329224	17191.763672	9739.164063	53.703186
565.473877	1093.705444	17318.017578	9787.427734	53.584538
565.818298	1091.167480	17494.449219	9870.920898	53.524376
566.162659	1090.801880	17690.904297	9966.846680	53.469822
566.507019	1087.661621	17885.035156	10056.019531	53.391430
566.851196	1090.844849	18033.029297	10125.620117	53.327103
567.195435	1090.930786	18181.650391	10179.821289	53.180271
567.539612	1094.350586	18281.232422	10207.480469	53.023750
567.883789	1093.038574	18350.337891	10220.320313	52.889397
568.227844	1094.350708	18373.931641	10220.104492	52.812359
568.571960	1094.243042	18368.382813	10205.500977	52.745071
568.915955	1094.888306	18297.125000	10149.193359	52.634464
569.259888	1096.587402	18214.556641	10091.358398	52.545788
569.603821	1099.405151	18094.542969	10006.250000	52.408192
569.947632	1099.426514	17961.880859	9910.172852	52.250671
570.291504	1100.544922	17867.480469	9832.551758	52.078728
570.635193	1097.146606	17825.111328	9798.503906	52.016830
570.979004	1099.275879	17849.824219	9795.493164	51.916012
571.322632	1100.695435	17954.826172	9831.992188	51.805084
571.666321	1101.190186	18077.617188	9887.290039	51.754704
572.009949	1102.072021	18221.482422	9955.878906	51.717941
572.353455	1102.566772	18347.908203	10014.294922	51.676147
572.696960	1101.254761	18457.728516	10062.429688	51.630154
573.040405	1099.146973	18533.201172	10088.668945	51.563000
573.383850	1098.587769	18599.574219	10110.156250	51.491776
573.727173	1099.297607	18644.417969	10132.395508	51.484955
574.070557	1099.577148	18657.710938	10139.191406	51.483917
574.413879	1100.953735	18657.667969	10124.587891	51.397053
574.757019	1099.813721	18610.478516	10096.884766	51.380527
575.100281	1097.447876	18509.691406	10045.179688	51.387585
575.443420	1097.125122	18375.201172	9963.514648	51.315838
575.786499	1094.458130	18211.888672	9859.758789	51.206875
576.129517	1091.361084	18045.138672	9756.928711	51.112900
576.472534	1090.909302	17876.083984	9654.530273	51.018959
576.815491	1091.296509	17689.091797	9546.538086	50.941956
577.158447	1090.221191	17486.445313	9436.846680	50.905773
577.501343	1090.049072	17278.958984	9313.412109	50.796276
577.844116	1089.167236	17046.132813	9179.288086	50.699619
578.187012	1089.769531	16777.798828	9033.613281	50.636341
578.529724	1090.479370	16485.935547	8877.594727	50.580608
578.872375	1090.285645	16187.790039	8713.208008	50.491276
579.215027	1092.199951	15902.677734	8563.792969	50.448021
579.557617	1093.834473	15631.097656	8420.248047	50.397472
579.900146	1097.426270	15371.777344	8277.155273	50.298111
580.242676	1098.200684	15135.146484	8147.181641	50.217342
580.585144	1098.372681	14925.915039	8030.607910	50.133533
580.927612	1099.964355	14731.781250	7922.379883	50.047737
581.269958	1099.598633	14558.878906	7831.745117	50.018623
581.612305	1099.770752	14418.152344	7758.639160	49.997578
581.954590	1099.125488	14297.750000	7685.296875	49.900436
582.296814	1099.512573	14190.812500	7623.891113	49.837513
582.639038	1100.200806	14103.037109	7571.992188	49.772152
582.981140	1099.340576	14021.628906	7518.437012	49.674614
583.323242	1099.512573	13931.920898	7471.011230	49.651619
583.665283	1098.265015	13851.415039	7438.083008	49.711777
584.007324	1100.028687	13781.985352	7404.250488	49.710163
584.349304	1102.007446	13709.204102	7367.729980	49.699574
584.691284	1102.308472	13636.271484	7338.179199	49.751789
585.033142	1102.351685	13574.391602	7301.485840	49.704254
585.374939	1104.566895	13519.954102	7274.837402	49.698578
585.716736	1107.836060	13466.011719	7256.770020	49.756001
586.058411	1106.567139	13411.962891	7231.648438	49.775574
586.400085	1110.137451	13364.902344	7208.505859	49.763241
586.741760	1109.212769	13321.413086	7182.868652	49.734329
587.083374	1109.234253	13313.434570	7173.576660	49.690617
587.424988	1108.954590	13301.734375	7156.435547	49.598873
587.766541	1107.018799	13296.334961	7146.692383	49.548912
588.107971	1106.717773	13323.178711	7155.682617	49.514870
588.449341	1105.964966	13351.696289	7161.855957	49.453079
588.790710	1102.932373	13396.068359	7183.126953	49.460075
589.132080	1100.415894	13431.727539	7203.559570	49.493061
589.473267	1097.619873	13485.625977	7224.443848	49.457710
589.814514	1098.308105	13539.355469	7244.790527	49.404865
590.155762	1094.866943	13599.190430	7272.622070	49.404953
590.496948	1095.662720	13625.881836	7298.044922	49.499393
590.838013	1093.791504	13636.012695	7306.497070	49.534336
591.179077	1093.425903	13644.377930	7315.487305	49.574417
591.520081	1093.124756	13635.905273	7314.002930	49.597282
591.861023	1092.909668	13604.050781	7299.398438	49.607697
592.201965	1094.049683	13567.380859	7286.494141	49.645473
592.542847	1094.350708	13520.362305	7258.361328	49.605705
592.883606	1094.350586	13474.616211	7225.798340	49.525978
593.224365	1093.812988	13432.461914	7204.656250	49.526035
593.565125	1095.038940	13414.565430	7192.784180	49.496586
593.905823	1093.662354	13405.166016	7189.536133	49.513641
594.246521	1093.640991	13429.277344	7186.224609	49.390102
594.587097	1095.813232	13479.755859	7203.838867	49.322140
594.927612	1095.060425	13530.147461	7228.035645	49.319920
595.268127	1098.501831	13617.537109	7278.127930	49.361839
595.608582	1096.738159	13737.702148	7343.727051	49.418610
595.948975	1097.361816	13919.186523	7431.802734	49.403587
596.289307	1097.921021	14138.355469	7548.161133	49.463383
596.629700	1097.920898	14373.543945	7673.681641	49.532597
596.969971	1098.695190	14583.634766	7776.102051	49.517513
597.310242	1095.791748	14748.256836	7860.242188	49.547466
597.650391	1097.017700	14833.452148	7893.601074	49.478512
597.990540	1098.157715	14878.662109	7921.046387	49.511169
598.330627	1096.910278	14868.209961	7916.508301	49.520367
598.670654	1098.071655	14827.321289	7895.365234	49.509575
599.010620	1096.802612	14715.005859	7830.303223	49.444851
599.350525	1097.211182	14560.815430	7744.830078	49.374737
599.690491	1095.447510	14334.487305	7630.687500	49.363400
600.030334	1095.963745	14053.934570	7490.411133	49.347599
600.370178	1098.437134	13753.231445	7333.359863	49.269257
600.710022	1097.920898	13462.032227	7190.482910	49.276180
601.049683	1100.523438	13202.603516	7060.703125	49.249218
601.389343	1100.222290	13015.827148	6972.799805	49.284763
601.728943	1098.458618	12878.240234	6905.930176	49.300335
602.068542	1099.340454	12808.490234	6876.271484	49.336899
602.408081	1099.555542	12813.306641	6876.055176	49.313831
602.747498	1096.587402	12897.833984	6915.307617	49.305981
603.087036	1097.426270	13028.324219	6981.639160	49.319111
603.426453	1096.200317	13228.691406	7070.918945	49.245605
603.765869	1096.049683	13460.613281	7185.944824	49.252811
604.105103	1095.404419	13732.733398	7320.305176	49.258041
604.444336	1095.038940	14025.156250	7464.773926	49.262779
604.783569	1092.694580	14310.224609	7601.909180	49.246830
605.122681	1093.339722	14537.800781	7714.375000	49.247307
605.461792	1093.898926	14714.596680	7798.191895	49.221363
605.800842	1091.619141	14821.641602	7844.821777	49.185665
606.139954	1091.188965	14841.731445	7846.391113	49.126804
606.478943	1092.458008	14791.166016	7820.496582	49.114403
606.817932	1092.909668	14669.818359	7759.929688	49.105583
607.156799	1096.307861	14492.224609	7674.283203	49.104332
607.495605	1098.050049	14283.812500	7563.151855	49.030926
607.834412	1097.770386	14040.190430	7441.416016	49.014370
608.173157	1099.641602	13796.268555	7314.734375	48.950741
608.511841	1100.394409	13598.674805	7220.572266	48.968159
608.850464	1098.394165	13492.187500	7161.683105	48.921982
609.189148	1099.856567	13428.931641	7130.732910	48.915886
609.527710	1100.674072	13402.199219	7110.235840	48.852165
609.866211	1099.684692	13397.660156	7110.558105	48.876934
610.204712	1098.544800	13401.832031	7106.105957	48.828911
610.543091	1097.619873	13421.490234	7108.579590	48.774937
610.881409	1095.705566	13409.467773	7103.783203	48.791569
611.219788	1093.963623	13372.667969	7083.136230	48.776913
611.558044	1093.812988	13309.347656	7051.346680	48.770142
611.896301	1091.705078	13199.097656	6992.651367	48.738373
612.234436	1092.737671	13027.894531	6904.575195	48.695107
612.572693	1094.694824	12793.499023	6790.862305	48.690166
612.910767	1094.221558	12539.918945	6664.201660	48.664402
613.248840	1094.178589	12277.156250	6538.208008	48.681393
613.586792	1096.888550	12025.425781	6414.471680	48.657776
613.924805	1098.695190	11788.512695	6303.340332	48.687878
614.262695	1099.727661	11571.411133	6191.304688	48.622337
614.600525	1101.254761	11383.238281	6099.379395	48.610508
614.938293	1102.953979	11231.972656	6027.735840	48.620522
615.276123	1103.040039	11102.236328	5960.630859	48.579811
615.613892	1100.824707	10995.621094	5911.333984	48.616554
615.951538	1099.362183	10904.834961	5862.511230	48.576435
616.289185	1099.835205	10831.686523	5824.441895	48.547867
616.626770	1097.641479	10767.162109	5790.631836	48.533848
616.964294	1097.727417	10728.683594	5770.973145	48.523174
617.301819	1096.781128	10697.540039	5750.282715	48.470142
617.639221	1097.619873	10677.108398	5739.335449	48.454735
617.976624	1097.211060	10657.708008	5734.753906	48.507343
618.313965	1096.243286	10649.468750	5726.344238	48.466362
618.651306	1096.028198	10634.735352	5719.332520	48.468876
618.988525	1094.178589	10620.928711	5707.739746	48.427441
619.325684	1097.297363	10602.753906	5696.641602	48.386356
619.662964	1099.921387	10589.075195	5687.737305	48.347996
620.000000	1099.813721	10570.235352	5679.822266	48.361191
620.337097	1098.974854	10547.738281	5669.669922	48.373474
620.674133	1097.942505	10512.743164	5653.668457	48.388981
621.011047	1097.017578	10483.148438	5639.816895	48.399063
621.347961	1096.092773	10448.735352	5628.073730	48.456688
621.684875	1094.737793	10412.816406	5611.899414	48.477394
622.021729	1095.813232	10378.791016	5597.962891	48.498981
622.358521	1095.684204	10344.764648	5580.068359	48.484653
622.695313	1097.103638	10306.308594	5567.055664	48.537872
623.031982	1096.824097	10284.176758	5551.655762	48.488739
623.368652	1095.296997	10261.485352	5543.289551	48.526089
623.705261	1095.963745	10251.548828	5536.191406	48.497475
624.041748	1097.469238	10251.785156	5533.782715	48.461441
624.378296	1099.340454	10255.355469	5533.589355	48.429905
624.714722	1099.426636	10275.638672	5541.353516	48.406975
625.051147	1101.190186	10313.256836	5551.505859	48.309631
625.387512	1100.501953	10365.477539	5577.723633	48.324162
625.723877	1098.609253	10452.929688	5614.158203	48.272335
626.060120	1099.770630	10549.522461	5661.217773	48.270550
626.396301	1098.716797	10676.248047	5720.494141	48.256458
626.732483	1099.362183	10795.445313	5782.673340	48.301064
627.068604	1102.287109	10906.147461	5842.035645	48.345737
627.404724	1102.631348	11006.245117	5894.966797	48.389767
627.740662	1102.609863	11092.771484	5941.618164	48.437737
628.076721	1104.029175	11155.273438	5975.493652	48.466282
628.412720	1104.889526	11191.256836	5993.301758	48.465538
628.748596	1103.620605	11195.687500	6000.055176	48.517662
629.084473	1105.943481	11178.266602	5989.796387	48.487850
629.420227	1107.277100	11111.333984	5960.975098	48.517300
629.755981	1106.911377	11027.991211	5916.991699	48.483433
630.091675	1108.180298	10910.987305	5865.393555	48.529095
630.427307	1110.503174	10777.874023	5805.515137	48.565548
630.762939	1106.266113	10644.050781	5737.506836	48.556774
631.098450	1105.362671	10515.711914	5670.875000	48.515862
631.434021	1104.781982	10400.235352	5610.544922	48.472759
631.769470	1103.685059	10291.620117	5553.247559	48.428318
632.104980	1102.846313	10191.930664	5505.284180	48.436543
632.440308	1102.029053	10108.780273	5462.655273	48.415085
632.775635	1101.813965	10030.147461	5430.328613	48.480652
633.110901	1099.211426	9979.409180	5403.379395	48.469284
633.446106	1098.480103	9941.985352	5389.119141	48.517406
633.781250	1099.641602	9918.605469	5371.870117	48.443657
634.116394	1099.232910	9898.128906	5358.900391	48.411385
634.451538	1102.158081	9885.289063	5350.706055	48.371677
634.786560	1102.867798	9865.500977	5336.618164	48.315964
635.121582	1102.502075	9830.788086	5319.002930	48.308464
635.456543	1102.308594	9802.785156	5303.538574	48.287354
635.791443	1103.534424	9758.627930	5286.031250	48.324112
636.126221	1104.502441	9707.848633	5262.866699	48.334270
636.461060	1105.190674	9659.993164	5235.852539	48.284714
636.795776	1107.190918	9596.716797	5208.064453	48.305099
637.130493	1105.943481	9518.750000	5163.048340	48.225346
637.465210	1103.878784	9428.092773	5119.537598	48.240696
637.799805	1102.028931	9344.297852	5077.747559	48.235733
638.134399	1101.233276	9254.458984	5035.226074	48.250751
638.468933	1101.254761	9165.372070	4996.597168	48.304634
638.803345	1101.125610	9083.641602	4958.915527	48.327995
639.137756	1100.050293	9002.297852	4927.793945	48.438671
639.472168	1100.394409	8935.709961	4894.262695	48.420109
639.806519	1100.007324	8868.152344	4859.075195	48.390804
640.140747	1096.695190	8796.789063	4822.425781	48.385521
640.474976	1094.071167	8722.736328	4784.851074	48.380413
640.809204	1094.759277	8651.587891	4753.836426	48.420803
641.143372	1095.899292	8599.172852	4726.499512	48.386883
641.477478	1095.770264	8539.037109	4692.172852	48.317532
641.811462	1095.469116	8489.138672	4662.792969	48.248352
642.145447	1096.630615	8438.615234	4641.112793	48.276897
642.479370	1098.974976	8393.835938	4615.281738	48.202518
642.813293	1100.846069	8347.163086	4586.073730	48.096539
643.147095	1100.846191	8300.597656	4562.457520	48.079594
643.480957	1101.039673	8259.368164	4544.605957	48.105732
643.814758	1104.373413	8223.168945	4527.873047	48.090996
644.148438	1105.362793	8195.423828	4513.871094	48.074455
644.482117	1105.986450	8168.646973	4503.740723	48.108704
644.815735	1103.061401	8131.695801	4486.297852	48.135044
645.149292	1102.717163	8109.973145	4481.329590	48.215912
645.482788	1101.899902	8092.078125	4478.834961	48.309711
645.816223	1099.942749	8076.871582	4467.822266	48.271660
646.149658	1099.706177	8067.816895	4465.671387	48.305279
646.483032	1100.502075	8075.860840	4473.285645	48.352833
646.816345	1100.093384	8077.473633	4472.532715	48.333893
647.149658	1098.200684	8077.538574	4471.973633	48.339443
647.482849	1096.200317	8084.291992	4475.629883	48.359837
647.816101	1096.824097	8078.957520	4476.232422	48.400799
648.149231	1098.308105	8086.378418	4478.834473	48.375679
648.482239	1100.523560	8096.530762	4482.490723	48.341393
648.815247	1100.953613	8095.196777	4480.210938	48.314838
649.148254	1099.426636	8089.260742	4480.296875	48.368389
649.481201	1100.222412	8077.538574	4481.415527	48.459793
649.814087	1101.082764	8073.194824	4480.770020	48.474365
650.146973	1098.630859	8060.848633	4473.607910	48.475601
650.479736	1098.931885	8054.697266	4475.521973	48.543758
650.812500	1101.921509	8054.976563	4478.941895	48.568874
651.145203	1101.104248	8043.039551	4475.909180	48.614754
651.477844	1100.803101	8051.212402	4479.242676	48.607777
651.810486	1097.705933	8047.298340	4475.543457	48.604828
652.143005	1096.716675	8036.156250	4474.984375	48.682140
652.475525	1096.716675	8036.543457	4474.468262	48.671986
652.807922	1097.426392	8025.961426	4463.950684	48.589268
653.140381	1097.168213	8024.478027	4454.917480	48.471188
653.472717	1095.383057	7998.733887	4446.465332	48.542839
653.805115	1095.727173	7972.062988	4433.990234	48.547123
654.137390	1093.770020	7941.564453	4418.117676	48.546253
654.469543	1093.296753	7907.625000	4401.771484	48.551735
654.801758	1095.619629	7876.094238	4385.167480	48.515007
655.133850	1096.867065	7834.734375	4365.982422	48.518547
655.465881	1097.490723	7790.793457	4349.915527	48.592228
655.797974	1099.082397	7760.961426	4330.794434	48.510517
656.129944	1099.921143	7724.742188	4320.255859	48.610138
656.461853	1098.114502	7702.911133	4316.986328	48.735363
656.793762	1096.974487	7684.500000	4315.287109	48.854649
657.125610	1097.189575	7687.489258	4318.535156	48.880108
657.457397	1096.845581	7706.740234	4329.460938	48.905701
657.789124	1098.265137	7744.443359	4348.323730	48.901165
658.120789	1096.652100	7805.526367	4381.467773	48.962250
658.452393	1095.963867	7895.795410	4426.677734	48.982300
658.783997	1096.393921	8007.443848	4481.243652	48.977360
659.115540	1099.706177	8137.502930	4545.423340	48.960171
659.447083	1099.082520	8251.990234	4610.937012	49.096878
659.778503	1097.383301	8362.735352	4663.416504	49.082729
660.109924	1099.276001	8457.262695	4705.765625	49.014626
660.441284	1099.770630	8524.668945	4743.426270	49.073475
660.772522	1100.394287	8568.072266	4760.718750	49.015564
661.103760	1101.082520	8577.277344	4767.020508	49.034809
661.434998	1102.028809	8569.641602	4765.386230	49.056606
661.766113	1104.007690	8515.679688	4738.479980	49.037144
662.097229	1104.029419	8421.323242	4696.022949	49.089100
662.428345	1104.717651	8297.867188	4637.047363	49.106857
662.759277	1102.179565	8148.234863	4567.684082	49.183613
663.090332	1102.609741	8003.937988	4493.889648	49.139523
663.421204	1101.942993	7856.973145	4422.611816	49.158463
663.752075	1102.846313	7713.859375	4353.399414	49.168758
664.082886	1102.867798	7589.284668	4286.444824	49.080673
664.413635	1100.889160	7478.367676	4232.502930	49.104263
664.744324	1099.233032	7379.688965	4182.689941	49.096069
665.075012	1097.899536	7287.720215	4139.587891	49.140171
665.405640	1097.963989	7214.679199	4104.788574	49.157505
665.736206	1098.394165	7161.597168	4075.128906	49.095089
666.066772	1095.727051	7110.623047	4057.986816	49.248730
666.397278	1096.867065	7076.941895	4037.253174	49.169724
666.727661	1095.555054	7038.851074	4020.885254	49.220669
667.058044	1097.469238	7009.146973	4009.851807	49.264908
667.388306	1097.512329	6988.822266	4002.861816	49.315849
667.718567	1098.673828	6970.820313	4001.055420	49.426247
668.048828	1099.899780	6964.669922	4003.184326	49.503811
668.378967	1102.889404	6962.884277	4007.443115	49.565804
668.709167	1103.921875	6958.732910	4006.475098	49.575523
669.039246	1101.878540	6962.690918	4009.142090	49.605129
669.369263	1102.416260	6956.776367	4011.034912	49.682945
669.699341	1104.846558	6948.473633	4009.873291	49.712738
670.029236	1105.083130	6938.924805	4005.829590	49.722752
670.359131	1107.147827	6934.085449	4003.721680	49.710052
670.688965	1106.502686	6921.546875	3998.473633	49.732571
671.018738	1105.384277	6902.124512	3989.762695	49.758629
671.348511	1103.878662	6880.379883	3977.438965	49.745689
671.678223	1104.308716	6849.687500	3961.028320	49.722042
672.007813	1102.867676	6814.112793	3944.833008	49.760872
672.337341	1100.157715	6783.227051	3929.820313	49.791096
672.666992	1102.201050	6750.986328	3909.000732	49.688557
672.996460	1102.115112	6716.401855	3892.159912	49.695450
673.325867	1100.673950	6688.054199	3868.092285	49.529804
673.655273	1097.275635	6651.426270	3854.391602	49.640644
673.984619	1095.382935	6617.271484	3839.163818	49.689171
674.314026	1096.415283	6586.729492	3825.118896	49.700317
674.643250	1098.243652	6561.845215	3811.182129	49.654766
674.972412	1098.802856	6540.853516	3801.310059	49.659721
675.301514	1098.243652	6515.022949	3784.791992	49.596783
675.630676	1097.404663	6495.687012	3773.585938	49.574680
675.959778	1100.243774	6470.328125	3762.186768	49.569851
676.288757	1099.189941	6442.131348	3750.873535	49.629658
676.617737	1098.265137	6422.817383	3740.420898	49.622120
676.946594	1098.566284	6406.148438	3734.785889	49.668941
677.275513	1100.673950	6395.158203	3723.752197	49.543598
677.604309	1101.899902	6392.383301	3718.482666	49.458294
677.933044	1100.781494	6398.320313	3719.493164	49.432606
678.261780	1100.803101	6410.879883	3721.041504	49.344643
678.590393	1099.340576	6432.216797	3726.375000	49.261120
678.919067	1101.254761	6468.823242	3743.861572	49.232849
679.247620	1100.523315	6513.860840	3760.465820	49.136829
679.576111	1099.125366	6559.737305	3784.167969	49.171093
679.904541	1098.179077	6620.088867	3811.590576	49.139008
680.232971	1098.006958	6676.332520	3842.583740	49.200726
680.561401	1097.490845	6732.962891	3869.683838	49.191849
680.889709	1097.082153	6787.829590	3894.977295	49.165684
681.217957	1096.350830	6834.244141	3913.710693	49.100945
681.546143	1094.006470	6873.323730	3929.841553	49.068684
681.874390	1095.318481	6900.359375	3945.757813	49.102829
682.202454	1096.393799	6914.985840	3956.899170	49.161472
682.530579	1096.157227	6905.263672	3956.576416	49.240261
682.858521	1099.017700	6874.012695	3942.488525	49.237629
683.186523	1099.426514	6833.169922	3918.550537	49.167252
683.514465	1099.641602	6772.193848	3895.450928	49.286621
683.842346	1100.157715	6708.701660	3858.500000	49.181076
684.170166	1101.727905	6635.251465	3819.828125	49.120602
684.497925	1100.673950	6558.102051	3787.372803	49.230125
684.825623	1100.609375	6474.780762	3753.927246	49.371666
685.153320	1103.814087	6395.049805	3713.750244	49.325642
685.481018	1100.932007	6318.846680	3678.606445	49.400471
685.808533	1097.920898	6247.827637	3642.150146	49.403404
686.136047	1096.910034	6188.508301	3613.006348	49.416630
686.463623	1094.716309	6143.836426	3590.616943	49.432388
686.791016	1093.898926	6115.273438	3576.529053	49.441246
687.118408	1093.038696	6102.132324	3559.924805	49.248154
687.445740	1093.705566	6096.776855	3556.849365	49.232635
687.772949	1094.221558	6093.271484	3555.709473	49.239113
688.100220	1095.705688	6093.701660	3553.601318	49.177620
688.427429	1093.985107	6090.109375	3550.848633	49.175392
688.754517	1094.995972	6091.464355	3546.073975	49.056213
689.081604	1098.157593	6083.226563	3540.718506	48.997540
689.408630	1102.158203	6065.138672	3529.383545	48.906609
689.735657	1102.394653	6042.167480	3514.843750	48.837250
690.062622	1104.502441	6012.873535	3500.670166	48.817982
690.389465	1104.244385	5970.202637	3476.839600	48.759056
690.716248	1105.685425	5911.765137	3454.105469	48.863525
691.043091	1103.599121	5852.058105	3424.618164	48.879417
691.369812	1101.125732	5789.728027	3395.431396	48.933678
691.696533	1100.910645	5724.429688	3361.986084	48.903778
692.023132	1104.050781	5671.025391	3328.068115	48.697826
692.349670	1102.287109	5605.705078	3296.215088	48.716953
692.676270	1101.039673	5552.150391	3266.211182	48.643394
693.002747	1098.523315	5502.918457	3242.638428	48.681267
693.329163	1099.146973	5454.503906	3217.366455	48.634808
693.655518	1098.566284	5414.843262	3198.761719	48.657566
693.981873	1098.286743	5380.150879	3182.006836	48.663857
694.308167	1097.318726	5352.255371	3166.951416	48.640743
694.634399	1099.340576	5318.573730	3149.357910	48.587437
694.960571	1100.588013	5295.774902	3133.764648	48.464504
695.286743	1100.222412	5279.320801	3126.925049	48.496166
695.612854	1098.652222	5266.910645	3124.731201	48.607327
695.938904	1098.630737	5266.072266	3126.838867	48.667946
696.264832	1098.845825	5277.858887	3129.850098	48.600094
696.590820	1100.846191	5295.279785	3137.464111	48.555256
696.916687	1100.394409	5332.553223	3155.745850	48.565086
697.242554	1100.114868	5381.053711	3178.630371	48.552799
697.568359	1099.856689	5452.417480	3217.603027	48.655186
697.894043	1100.738525	5550.967285	3260.489990	48.531250
698.219788	1099.534058	5673.821777	3318.863037	48.517479
698.545349	1101.792358	5811.623535	3381.989014	48.413559
698.870972	1102.136597	5945.833984	3437.135742	48.206955
699.196533	1102.846313	6066.235840	3487.959229	48.054111
699.521973	1101.211670	6169.517578	3535.578125	48.031170
699.847412	1101.125488	6241.720215	3572.227539	48.070354
700.172852	1103.534424	6290.349609	3593.284180	48.001511
700.498169	1104.201172	6309.813965	3601.758545	47.978161
700.823486	1103.749512	6299.876953	3588.660156	47.822357
701.148682	1104.244263	6248.881348	3558.096924	47.697289
701.473816	1103.663574	6161.343750	3513.403076	47.645153
701.799072	1104.351685	6041.027832	3449.846924	47.511623
702.124146	1100.867554	5895.203125	3381.429932	47.567856
702.449158	1100.544922	5739.484863	3312.517822	47.682724
702.774109	1103.018433	5585.810059	3242.079102	47.717155
703.099060	1102.674316	5439.813965	3172.866455	47.731739
703.424011	1102.502197	5303.388672	3106.857910	47.712681
703.748840	1100.630981	5186.169434	3049.388428	47.698914
704.073608	1099.426514	5079.683105	2994.306396	47.606979
704.398315	1100.846069	4983.585449	2953.075439	47.704193
704.723022	1103.513062	4910.414551	2916.554932	47.625134
705.047668	1101.942993	4846.686523	2886.938477	47.666695
705.372253	1101.770996	4791.173828	2861.666260	47.701359
705.696716	1102.953857	4744.007324	2836.351318	47.607033
706.021240	1102.674316	4704.539551	2818.585938	47.639530
706.345764	1097.641357	4671.353027	2803.186035	47.724743
706.670044	1099.942749	4651.285645	2792.302979	47.654095
706.994446	1097.189697	4638.187500	2782.732178	47.600777
707.318665	1095.318604	4627.347168	2775.871094	47.580376
707.642883	1094.587158	4623.282227	2772.214600	47.542431
707.967102	1093.038574	4619.604980	2767.396973	47.478432
708.291260	1092.113770	4615.281250	2765.740723	47.503475
708.615295	1095.447510	4613.969727	2763.009033	47.393803
708.939331	1096.630493	4619.562012	2764.321045	47.338146
709.263367	1096.415527	4626.874512	2768.859375	47.371853
709.587280	1097.641479	4638.832520	2770.859375	47.250145
709.911194	1098.888794	4662.556152	2779.849609	47.169407
710.234985	1098.071533	4684.344238	2787.915283	47.119778
710.558716	1101.104248	4710.605469	2801.465332	47.107925
710.882568	1104.373413	4740.694824	2818.865479	47.149082
711.206177	1105.212158	4770.397949	2836.760010	47.243114
711.529785	1105.319702	4803.110840	2853.213867	47.268604
711.853394	1104.459351	4831.093262	2863.172119	47.193066
712.176880	1103.857178	4846.105469	2872.743164	47.268002
712.500427	1102.394653	4857.935059	2878.657959	47.297142
712.823792	1100.458984	4866.709961	2881.475586	47.288845
713.147217	1100.351440	4868.839355	2882.421875	47.288742
713.470520	1099.878052	4855.547363	2875.818848	47.286930
713.793823	1100.437378	4835.544922	2863.666748	47.206924
714.117004	1100.523438	4811.112305	2848.503662	47.107891
714.440247	1098.200684	4783.754395	2831.232422	47.022289
714.763367	1098.415771	4748.201172	2813.617432	46.994591
715.086365	1097.232788	4712.841797	2797.206787	47.017639
715.409485	1096.781128	4687.011230	2785.097656	47.025303
715.732361	1097.275879	4667.696777	2773.440430	46.945854
716.055298	1097.405029	4649.586426	2763.804932	46.912018
716.378174	1100.308472	4628.573242	2753.416504	46.853291
716.700928	1100.760132	4606.527832	2742.060303	46.817142
717.023804	1101.340820	4585.686035	2732.618164	46.817329
717.346558	1101.728027	4558.823242	2723.563232	46.913235
717.669189	1098.609253	4527.421387	2711.798584	47.048054
717.991760	1097.469238	4488.470215	2695.882568	47.136917
718.314392	1096.587402	4450.594238	2676.847900	47.115601
718.636902	1099.577026	4408.395508	2656.350586	47.049229
718.959351	1100.157715	4350.775391	2630.304443	47.072491
719.281738	1098.566284	4297.457031	2604.043213	47.062469
719.604065	1098.781250	4234.267090	2581.782227	47.297325
719.926453	1097.727417	4175.249023	2554.768311	47.344620
720.248718	1095.963745	4124.210449	2528.098145	47.292530
720.570923	1096.028198	4073.709229	2501.944580	47.215141
720.893066	1093.705322	4031.316406	2481.145996	47.230236
721.215088	1096.178833	3985.740723	2459.573242	47.183430
721.537170	1098.501709	3947.241943	2440.560303	47.110600
721.859192	1100.587891	3913.947754	2424.558350	47.060116
722.181152	1099.103882	3881.728271	2411.546143	47.165627
722.503052	1100.480469	3859.360107	2402.254883	47.184895
722.824951	1102.652832	3835.615479	2390.382324	47.118446
723.146790	1103.190552	3823.097412	2376.681641	46.821129
723.468506	1104.330444	3809.010010	2371.670166	46.857296
723.790161	1104.480957	3791.265625	2365.777100	46.944447
724.111816	1107.599609	3779.392822	2361.948730	46.947838
724.433472	1109.083618	3764.789063	2356.485596	46.970642
724.755005	1108.933105	3761.132813	2353.022949	46.907848
725.076477	1107.642578	3755.927979	2349.732178	46.901653
725.397888	1106.309082	3752.292969	2348.118896	46.931873
725.719299	1106.760864	3754.831055	2349.366455	46.924946
726.040710	1105.642456	3757.368652	2353.130371	47.044373
726.361938	1102.781738	3763.111572	2358.227783	47.191368
726.683167	1101.319336	3769.628174	2364.658691	47.346069
727.004395	1098.523315	3782.791260	2369.627197	47.353836
727.325500	1098.888916	3802.943848	2379.692871	47.366047
727.646667	1097.361816	3818.666504	2390.984619	47.536861
727.967651	1096.738037	3837.765625	2400.426270	47.562027
728.288635	1095.533569	3854.434570	2413.094727	47.756741
728.609558	1096.609009	3870.242920	2424.085205	47.860542
728.930481	1097.748901	3888.051514	2434.409180	47.903774
729.251282	1097.533813	3895.902100	2437.742676	47.892513
729.572021	1097.856567	3901.946045	2441.485352	47.916759
729.892761	1101.147217	3904.398193	2446.260010	47.984032
730.213440	1103.082886	3907.000244	2448.432129	47.981056
730.534119	1103.125854	3909.043701	2451.593994	48.058002
730.854675	1105.298340	3910.914795	2452.777100	48.027905
731.175171	1103.986328	3916.764893	2453.702148	47.985142
731.495605	1106.180176	3921.561035	2455.336426	47.920914
731.816101	1105.470215	3924.852295	2455.143066	47.871227
732.136475	1105.083130	3927.583008	2453.508301	47.774143
732.456787	1101.405273	3927.024170	2456.712891	47.964981
732.777039	1100.803101	3935.347900	2465.036621	48.128838
733.097229	1101.018066	3941.176758	2469.725098	48.191216
733.417480	1098.867310	3944.983398	2471.037109	48.212009
733.737549	1097.125122	3943.112305	2466.670898	48.121990
734.057617	1098.179077	3932.616455	2459.939209	48.043400
734.377563	1095.189331	3911.086670	2452.411377	48.198559
734.697510	1096.071289	3878.867432	2439.269775	48.267944
735.017517	1093.770020	3843.358398	2425.483398	48.433189
735.337341	1093.189331	3805.761963	2413.675537	48.680214
735.657166	1093.683960	3767.800537	2401.631104	48.911369
735.976868	1096.243286	3729.903076	2382.682373	48.846066
736.296631	1096.479980	3685.919434	2362.335693	48.885319
736.616272	1096.609009	3646.989746	2342.720459	48.859818
736.935852	1094.200195	3613.695068	2326.567871	48.913284
737.255371	1092.995728	3579.648193	2317.813965	49.255711
737.574829	1092.716187	3553.386719	2310.329102	49.482975
737.894348	1093.167847	3539.879150	2306.415039	49.586853
738.213745	1090.952515	3535.707031	2304.651123	49.645012
738.533081	1090.780396	3536.954102	2307.489990	49.739296
738.852356	1092.436523	3542.008545	2308.286133	49.635185
739.171570	1091.425659	3550.095947	2310.092773	49.566105
739.490784	1090.414673	3554.031982	2310.974365	49.543400
739.809937	1089.769409	3559.795898	2312.996094	49.522820
740.129028	1086.263550	3556.870850	2315.706055	49.762764
740.447998	1089.360840	3549.062744	2315.426514	49.846107
740.767029	1089.791016	3542.073242	2310.910156	49.795212
741.085999	1090.866333	3529.534180	2308.673340	49.937386
741.404846	1093.941895	3505.854004	2298.306396	49.934013
741.723633	1096.566040	3479.054688	2285.358398	49.897079
742.042358	1097.619995	3447.330566	2269.141357	49.858116
742.361145	1098.308105	3413.713379	2253.397461	49.887135
742.679810	1098.630737	3378.698242	2237.502930	49.949059
742.998413	1098.071411	3342.435303	2226.447754	50.276001
743.316956	1096.544434	3307.721191	2209.435059	50.330242
743.635498	1100.953491	3277.159180	2193.755615	50.215942
743.953979	1099.835205	3247.563477	2183.711426	50.466171
744.272400	1103.276489	3222.377930	2174.290771	50.540962
744.590698	1101.018066	3197.170166	2161.106445	50.573067
744.909058	1098.652222	3172.715576	2151.513916	50.763233
745.227356	1099.361938	3152.347656	2146.523926	51.006783
745.545471	1099.835083	3136.452881	2142.050293	51.173824
745.863586	1101.706299	3118.794678	2140.587646	51.504009
746.181702	1101.835449	3099.072021	2139.426270	51.951324
746.499756	1105.083130	3085.199463	2135.124756	52.019249
746.817810	1108.782593	3073.305420	2136.780762	52.328136
747.135742	1106.696411	3063.347412	2136.544189	52.633186
747.453613	1107.449097	3057.948975	2135.167725	52.690014
747.771423	1105.448730	3051.646729	2137.146729	53.010948
748.089233	1108.997559	3048.893799	2143.448486	53.325066
748.406982	1110.008545	3053.905273	2147.900635	53.392345
748.724609	1109.685913	3058.378906	2157.299805	53.759823
749.042236	1107.018799	3059.346924	2164.526367	54.166489
749.359863	1104.480957	3064.616455	2168.333252	54.274426
749.677429	1103.362427	3072.724854	2176.183838	54.475571
749.994873	1101.577393	3079.026611	2183.001709	54.687843
750.312256	1100.243896	3083.586182	2189.432617	54.916832
750.629639	1103.491699	3088.361084	2194.508545	54.966682
750.946960	1104.222900	3091.178711	2204.101074	55.354939
751.264282	1104.782104	3090.511719	2210.123291	55.664234
751.581482	1103.943237	3088.726563	2213.220459	55.889084
751.898621	1101.728027	3083.779785	2221.931152	56.517349
752.215698	1100.243774	3078.725586	2225.738037	56.886765
752.532715	1102.738770	3077.456787	2229.286865	57.048553
752.849792	1101.534424	3074.101318	2238.406494	57.634144
753.166748	1101.620483	3069.283447	2244.514648	58.083839
753.483643	1101.469849	3068.767090	2252.322021	58.499149
753.800476	1100.501953	3066.680664	2260.989990	59.022511
754.117310	1095.877808	3065.132568	2272.969727	59.773472
754.434082	1092.780518	3060.593994	2280.497803	60.357208
754.750732	1091.791138	3060.551025	2289.359131	60.828545
755.067383	1092.264404	3061.110352	2298.478516	61.265034
755.383911	1093.511963	3057.410889	2304.070557	61.640575
755.700562	1093.425903	3055.905273	2309.684082	61.975590
756.016968	1093.382935	3049.216309	2318.588379	62.643650
756.333435	1095.490601	3043.925537	2321.470459	62.921261
756.649780	1097.447754	3042.161621	2329.987793	63.378990
756.966064	1096.996094	3042.914795	2342.376465	63.999611
757.282410	1097.017578	3046.441650	2352.033447	64.378799
757.598633	1096.630493	3049.990723	2365.562256	64.961479
757.914795	1100.329956	3059.734131	2379.176514	65.267113
758.230896	1099.577148	3072.273438	2394.189209	65.626526
758.546936	1096.673706	3082.403320	2411.632080	66.220413
758.862976	1095.146606	3093.996094	2430.236816	66.792931
759.178894	1094.221558	3103.352295	2448.131592	67.387848
759.494812	1095.296997	3115.203125	2463.961426	67.758812
759.810669	1094.931274	3124.688232	2486.200684	68.543648
760.126526	1094.027832	3134.172852	2500.675537	68.948418
760.442261	1093.662354	3138.109131	2511.859619	69.368263
760.757935	1092.414917	3141.571777	2525.108398	69.916245
761.073608	1095.877808	3145.593750	2533.905273	70.157410
761.389160	1094.006592	3143.851563	2544.723877	70.772049
761.704712	1095.576538	3141.012451	2556.768555	71.436707
762.020203	1098.351074	3145.658447	2570.039063	71.884079
762.335571	1100.458862	3166.349365	2590.364014	72.119263
762.650940	1102.394653	3207.171631	2634.283447	72.781532
762.966370	1100.329956	3283.697021	2707.647461	73.616455
763.281677	1100.867676	3390.075928	2795.851807	74.042374
763.596863	1098.243652	3507.316162	2895.842773	74.617889
763.911987	1100.415894	3602.295898	2985.122803	75.331627
764.227112	1102.867798	3678.735352	3055.260254	75.795525
764.542236	1103.319458	3740.076416	3112.385742	76.194595
764.857178	1103.685059	3780.877441	3154.562744	76.605537
765.172119	1102.609863	3804.622070	3183.577148	77.015465
765.487061	1099.082397	3818.322754	3202.805420	77.364372
765.801880	1095.899292	3806.385742	3209.795410	77.989548
766.116760	1094.608643	3769.692871	3186.695557	78.206390
766.431458	1094.243042	3686.671875	3130.194336	78.534515
766.746155	1093.124634	3573.044678	3048.227295	78.837334
767.060791	1095.296997	3442.340576	2956.129883	79.284126
767.375427	1094.716309	3328.520264	2871.839844	79.555931
767.689941	1093.232300	3229.862549	2798.131836	79.793846
768.004395	1090.027466	3144.906006	2734.510986	80.028267
768.318848	1087.769165	3074.574463	2681.773193	80.229500
768.633179	1088.134888	3014.631836	2640.800537	80.595284
768.947632	1090.457764	2957.291260	2602.838867	81.013176
769.261841	1091.188965	2908.618408	2567.092285	81.208290
769.576111	1091.877197	2861.257813	2536.852051	81.665573
769.890259	1093.038818	2827.167725	2511.322021	81.786491
770.204285	1094.501221	2789.485596	2490.028809	82.332771
770.518433	1092.630127	2756.814697	2468.284180	82.662346
770.832458	1091.081543	2725.714111	2447.184814	82.960739
771.146362	1090.844849	2697.301758	2431.613037	83.461197
771.460205	1091.619263	2670.524170	2420.708496	84.177917
771.774109	1093.490356	2651.468262	2410.019043	84.502396
772.087952	1094.608765	2632.154053	2392.748047	84.429337
772.401672	1094.888550	2615.657227	2379.520752	84.472557
772.715332	1098.071411	2602.666504	2368.487305	84.435730
773.028992	1098.630737	2589.718506	2357.023438	84.394272
773.342590	1098.049927	2572.082031	2348.011475	84.798798
773.656128	1097.103638	2557.994385	2338.590820	84.981522
773.969604	1099.555664	2543.970947	2329.449951	85.148247
774.283020	1100.200928	2532.851563	2322.997559	85.352043
774.596375	1099.577148	2521.043701	2313.103760	85.371452
774.909729	1100.695557	2507.816162	2302.263916	85.391998
775.223022	1101.900024	2492.523926	2290.541992	85.475449
775.536194	1105.836060	2481.941895	2286.713623	85.812988
775.849304	1105.857544	2466.456055	2282.863525	86.506485
776.162476	1104.674561	2453.142822	2276.604736	86.908249
776.475525	1104.739014	2438.840088	2271.077148	87.425018
776.788513	1105.427246	2430.839111	2262.366455	87.289032
777.101440	1103.857178	2424.859863	2256.021729	87.218941
777.414307	1102.502075	2417.826660	2250.838135	87.304390
777.727173	1100.566406	2414.213379	2245.439697	87.152283
778.039978	1102.781738	2408.384521	2244.600830	87.455322
778.352722	1101.211792	2403.846191	2241.052002	87.502693
778.665405	1098.566284	2402.491455	2240.708008	87.592583
778.977966	1092.823608	2397.759521	2239.890625	87.902176
779.290649	1092.436401	2399.566162	2236.062012	87.491364
779.603149	1092.156860	2396.124756	2236.298584	87.743088
779.915588	1090.328613	2397.006836	2236.470703	87.714180
780.227966	1090.199585	2391.801514	2234.728516	87.932335
780.540405	1090.048950	2385.219971	2234.319580	88.348999
780.852722	1088.307007	2382.596191	2232.147461	88.375954
781.164917	1089.554321	2373.412354	2228.060791	88.678535
781.477173	1089.876953	2365.260742	2223.587402	88.891708
781.789246	1090.737305	2355.926270	2218.210205	89.114983
782.101379	1091.360962	2343.107666	2211.994385	89.525574
782.413452	1092.500977	2335.429199	2202.982666	89.343994
782.725403	1091.683716	2324.244873	2193.777100	89.414902
783.037292	1092.586914	2315.189941	2183.130615	89.198509
783.349182	1094.264648	2301.854980	2174.656738	89.466774
783.661072	1094.049561	2294.843262	2165.752441	89.249542
783.972839	1094.845337	2286.003662	2154.955322	88.998245
784.284546	1096.609009	2271.679443	2143.383789	89.081879
784.596191	1097.211182	2261.699463	2137.038818	89.294815
784.907898	1095.383057	2254.236084	2128.005615	89.107292
785.219421	1096.652100	2247.138428	2122.327393	89.151451
785.530884	1095.189453	2243.331787	2118.520508	89.129288
785.842346	1094.737793	2236.341553	2114.326416	89.311951
786.153748	1096.479858	2227.588135	2110.820557	89.676712
786.465149	1096.845581	2220.232178	2110.239990	90.208878
786.776428	1098.093018	2214.403320	2108.691162	90.530220
787.087646	1100.114746	2210.489014	2113.681396	91.281532
787.398804	1100.028809	2215.650879	2120.563721	91.476761
787.709961	1101.448242	2228.491211	2135.232178	91.725334
788.021057	1103.448486	2243.998535	2147.534912	91.542358
788.332031	1105.255127	2260.581299	2164.031494	91.643066
788.643005	1103.792725	2278.411377	2179.130127	91.547791
788.953918	1105.513306	2290.907715	2192.035156	91.659103
789.264832	1108.137329	2298.671875	2202.402100	91.913734
789.575623	1107.040527	2307.898926	2211.478516	91.970711
789.886353	1104.803589	2315.555664	2216.704834	91.835587
790.197083	1102.480835	2321.470459	2216.252930	91.368462
790.507690	1098.695313	2320.459473	2212.854736	91.192673
790.818359	1099.792236	2312.114258	2206.058350	91.251839
791.128845	1098.394287	2292.391357	2189.798340	91.407600
791.439331	1097.297363	2270.732666	2171.581055	91.550316
791.749756	1095.619629	2247.246338	2150.546387	91.603188
792.060120	1096.092896	2224.662842	2127.640381	91.403061
792.370483	1097.361694	2201.928711	2108.648438	91.555038
792.680786	1093.597778	2184.206055	2093.184082	91.654015
792.990967	1093.619263	2169.795898	2078.020996	91.472137
793.301086	1095.189453	2154.396240	2060.836182	91.166969
793.611267	1093.275269	2141.577393	2052.770508	91.528503
793.921326	1095.254028	2130.070557	2039.328125	91.231064
794.231323	1095.834839	2122.757568	2030.165527	90.983543
794.541260	1097.576782	2120.929443	2025.519653	90.676743
794.851074	1098.308105	2121.144287	2022.465698	90.352455
795.161011	1099.297607	2123.252197	2026.401611	90.541519
795.470764	1099.512573	2126.284912	2037.048340	91.309021
795.780518	1099.598755	2132.049072	2042.769531	91.352654
796.090149	1102.050659	2141.147217	2047.909668	91.027054
796.399780	1099.663208	2146.158447	2056.405273	91.423454
796.709412	1098.458618	2155.600586	2067.202148	91.637978
797.018860	1099.512573	2160.504395	2073.891602	91.836617
797.328308	1100.222412	2166.117920	2084.258545	92.320129
797.637756	1098.953369	2165.515625	2087.355469	92.671768
797.947205	1098.738403	2166.655518	2090.925781	92.908653
798.256470	1097.942505	2161.364502	2091.807617	93.459145
798.565674	1098.243652	2157.278076	2087.118896	93.375175
798.874817	1099.125488	2148.309082	2076.924072	93.196136
799.183960	1098.501831	2141.921387	2065.073242	92.634972
799.493103	1098.480225	2131.447021	2055.674072	92.664536
799.802124	1101.749512	2121.531494	2042.037964	92.204849
800.111084	1102.265503	2105.830811	2029.046997	92.348900
800.419983	1103.319458	2098.023438	2017.776855	91.932617
800.728821	1102.846313	2086.774658	2006.571167	91.848648
801.037659	1104.997070	2080.709473	1998.785278	91.603653
801.346436	1102.781738	2071.482666	1989.880981	91.576172
801.655151	1102.953979	2065.804443	1979.578613	91.044731
801.963745	1103.642090	2057.674316	1971.771362	90.995804
802.272400	1102.201050	2050.490479	1964.028442	90.882317
802.580933	1102.201050	2039.693359	1957.683594	91.252220
802.889404	1100.630981	2028.745972	1951.876221	91.717651
803.197815	1099.082520	2021.282837	1947.918701	92.044662
803.506226	1099.297607	2016.185425	1944.262207	92.155724
803.814575	1100.566528	2007.926147	1939.616699	92.471626
804.122864	1101.190308	2004.979614	1935.293457	92.289558
804.431030	1100.007324	2001.473877	1932.131958	92.307877
804.739197	1102.201172	2001.990112	1931.830811	92.202690
805.047241	1102.416138	2005.754028	1935.100098	92.178574
805.355408	1101.426758	2007.345703	1933.185547	91.813820
805.663391	1099.146973	2007.990601	1936.132446	92.093452
805.971313	1099.168457	2010.550049	1939.121948	92.162659
806.279175	1098.286621	2015.131226	1941.251221	91.941925
806.587036	1097.641479	2015.045410	1940.605957	91.885857
806.894836	1098.566284	2019.046021	1939.143677	91.319489
807.202576	1098.351074	2019.497314	1938.455200	91.202034
807.510193	1096.888550	2016.873535	1938.283203	91.457436
807.817810	1095.210938	2012.937622	1936.024902	91.619209
808.125427	1093.791504	2003.044067	1931.379028	92.118248
808.432922	1094.114136	1993.773804	1925.163208	92.373718
808.740295	1094.587280	1982.503540	1922.044556	93.190910
809.047729	1097.576904	1975.276978	1910.258301	92.592155
809.355103	1097.039185	1967.017944	1900.902222	92.400307
809.662415	1098.329590	1958.005981	1890.040649	92.094078
809.969604	1100.652466	1948.585449	1881.910645	92.136787
810.276794	1098.867310	1934.863403	1874.017212	92.721710
810.583923	1098.996460	1925.744141	1865.542969	92.718315
810.890991	1101.254761	1915.011597	1855.477295	92.684021
811.197998	1102.093628	1908.214844	1846.744995	92.374611
811.505005	1103.018433	1904.429321	1837.367554	91.632034
811.811829	1101.706421	1894.557129	1828.226440	91.633896
812.118713	1101.899902	1888.190918	1821.623535	91.534004
812.425537	1099.835205	1879.695313	1818.332764	92.131592
812.732300	1098.222168	1872.963257	1816.418457	92.701462
813.038940	1097.684448	1866.187988	1812.611694	93.028488
813.345581	1098.845825	1863.585571	1809.277832	92.898537
813.652100	1099.060913	1860.918823	1807.664795	93.009979
813.958740	1097.426270	1856.810913	1804.503174	93.111824
814.265137	1096.953125	1852.681152	1803.900879	93.545258
814.571533	1097.921021	1844.830811	1801.750000	94.232124
814.877930	1098.329590	1838.356934	1801.900757	95.073669
815.184265	1099.039429	1836.184448	1799.491699	95.022316
815.490540	1097.770386	1834.356323	1796.695679	94.887138
815.796692	1097.254150	1834.635864	1794.093262	94.501816
816.102844	1099.211426	1837.539551	1792.652222	93.920410
816.408936	1100.523438	1839.324341	1792.673706	93.685631
816.714966	1099.211426	1841.475098	1794.953491	93.732468
817.020935	1100.673950	1842.270996	1795.147217	93.645638
817.326843	1103.964722	1845.712402	1799.298096	93.742577
817.632690	1102.158081	1852.294067	1801.169556	93.184631
817.938477	1101.835449	1856.961304	1804.911743	93.107170
818.244263	1101.792480	1867.629272	1809.751221	92.442505
818.549988	1100.760010	1873.328857	1819.709351	93.059586
818.855652	1103.470093	1885.846558	1830.764526	92.959648
819.161194	1103.706665	1902.515503	1849.347534	93.344093
819.466797	1103.771118	1925.163330	1872.748047	93.618729
819.772278	1103.255005	1952.435425	1902.773438	94.151772
820.077698	1102.738770	1988.138794	1936.541138	94.172394
820.383057	1101.813843	2028.810669	1975.642700	94.264496
820.688354	1098.673706	2080.752441	2025.132690	94.336525
820.993652	1101.663330	2157.772705	2098.066406	94.346581
821.298828	1101.684814	2304.586670	2240.535645	94.675293
821.604004	1100.630981	2572.469482	2506.805176	95.538620
821.909058	1099.835205	2981.638184	2902.531494	95.796227
822.214111	1096.953125	3465.762695	3369.944336	95.955002
822.519165	1097.985474	3929.153320	3813.827393	95.926552
822.824036	1096.824097	4320.793457	4189.336426	95.922508
823.128906	1095.361450	4639.757813	4497.202637	95.978012
823.433716	1096.178833	4895.488281	4745.663574	96.056526
823.738525	1094.673340	5104.998047	4941.816895	95.930977
824.043213	1094.049683	5264.351074	5091.770508	95.861679
824.347900	1090.887817	5364.987793	5192.557617	95.965698
824.652466	1090.414551	5375.397949	5199.268066	95.889603
824.957031	1093.103149	5241.897461	5058.175293	95.571671
825.261536	1093.318237	4947.731445	4770.741699	95.408127
825.565979	1093.167725	4563.447266	4396.566406	95.191139
825.870300	1095.705688	4180.711426	4030.198242	95.121140
826.174622	1097.125122	3872.071045	3733.796143	95.017021
826.478821	1098.157593	3660.776367	3527.125244	94.784599
826.783142	1096.867188	3533.771240	3402.593750	94.617043
827.087280	1097.469482	3464.859375	3338.069580	94.644318
827.391357	1099.361938	3414.552246	3296.042969	94.881233
827.695435	1101.211670	3371.278320	3254.210205	94.842964
827.999451	1102.416138	3325.917725	3211.021973	94.832680
828.303406	1102.179565	3276.857910	3174.264160	95.282349
828.607239	1101.964478	3237.540771	3134.130371	95.157738
828.911011	1102.459106	3190.309326	3090.082031	95.199501
829.214844	1099.942749	3143.464844	3047.259521	95.292183
829.518616	1098.609375	3076.682617	2983.423340	95.285347
829.822205	1098.781372	2972.583496	2881.948730	95.163055
830.125793	1098.673706	2829.640869	2745.265137	95.125519
830.429382	1099.168457	2664.308838	2586.772461	95.046043
830.732849	1098.824341	2509.278564	2434.280273	94.682686
831.036316	1096.824097	2377.025635	2308.114014	94.617126
831.339661	1096.651978	2268.861816	2201.692383	94.269844
831.642944	1093.748413	2178.850830	2110.885254	93.736481
831.946228	1096.286377	2102.174561	2038.317139	93.651642
832.249512	1098.222046	2045.307129	1985.428955	93.677635
832.552673	1099.082275	2010.528564	1949.661011	93.321869
832.855774	1102.932373	1996.849487	1939.401611	93.573471
833.158813	1104.997192	2013.561401	1959.834106	94.086571
833.461731	1103.921753	2059.653076	2004.786011	94.259155
833.764771	1103.900269	2119.768066	2070.127686	95.113503
834.067627	1103.104492	2185.711914	2133.769775	95.202126
834.370422	1102.975464	2241.912354	2183.883545	94.904999
834.673157	1101.663452	2288.176025	2228.943115	95.007813
834.975891	1101.900024	2330.245850	2267.054932	94.855606
835.278564	1098.308105	2362.443115	2298.435303	94.936630
835.581177	1096.910156	2382.402588	2318.566895	95.034142
835.883728	1095.985229	2384.703857	2323.470703	95.248528
836.186218	1092.802002	2366.636963	2306.565430	95.284195
836.488647	1090.307129	2323.083252	2262.904053	95.118401
836.791077	1092.092285	2254.881348	2196.508789	94.979950
837.093384	1090.586792	2176.441650	2113.186523	94.174622
837.395630	1090.737305	2090.258789	2032.122681	94.183609
837.697815	1093.017090	2016.034790	1961.705200	94.113914
838.000061	1094.286255	1949.897705	1899.503906	94.110199
838.302124	1096.006714	1888.363281	1841.023804	94.025482
838.604126	1098.996338	1832.979980	1786.672974	93.691002
838.906128	1098.566284	1788.243042	1740.473511	93.073631
839.208069	1100.910645	1753.615112	1704.168091	92.424286
839.510010	1100.050293	1732.945801	1678.874634	91.456543
839.811829	1101.061157	1722.105835	1663.582397	90.576614
840.113586	1101.985962	1716.105103	1656.764160	90.337227
840.415222	1102.351685	1711.566895	1655.258911	90.757294
840.716919	1102.050537	1712.921875	1653.323120	90.243645
841.018555	1100.630981	1710.857056	1651.150757	90.215706
841.320068	1100.523560	1709.136353	1649.086060	90.133255
841.621521	1097.641357	1705.630737	1646.548096	90.282288
841.922974	1097.512329	1703.781128	1645.795410	90.435638
842.224365	1096.221802	1698.167480	1642.418457	90.738525
842.525635	1095.727173	1688.209351	1631.771973	90.474419
842.826965	1097.619873	1671.691040	1617.555176	90.569832
843.128174	1098.673706	1646.139526	1597.208496	91.062271
843.429260	1097.447754	1618.781250	1573.764893	91.365150
843.730408	1101.663208	1595.208496	1549.052246	90.648018
844.031433	1103.362427	1574.797241	1525.758911	89.598068
844.332397	1105.384277	1555.224976	1507.304810	89.347305
844.633362	1105.083130	1538.384277	1490.012573	88.836472
844.934204	1106.029419	1523.844604	1475.408691	88.407333
845.235046	1107.234009	1509.713989	1461.428345	88.002968
845.535828	1108.266357	1497.755371	1450.437744	87.851357
845.836487	1108.546021	1485.108521	1439.726807	87.948425
846.137146	1107.642700	1474.763428	1429.940552	87.790695
846.437744	1105.556396	1465.708496	1422.154663	87.906822
846.738281	1105.147583	1457.642944	1416.325928	88.278709
847.038757	1102.179565	1449.856934	1409.895020	88.506035
847.339172	1099.749146	1439.275024	1405.679565	90.105186
847.639526	1098.329590	1433.338867	1401.012207	90.350517
847.939819	1097.748901	1427.101563	1396.775269	90.792152
848.240112	1097.512207	1421.896606	1392.021973	90.790359
848.540283	1096.479980	1416.369141	1386.343872	90.613853
848.840393	1097.533813	1413.573120	1379.418213	89.192833
849.140564	1094.888428	1410.583374	1375.310181	88.826813
849.440552	1096.888672	1405.034302	1370.535400	88.804352
849.740540	1097.082153	1402.818970	1365.287476	87.724251
850.040405	1098.910400	1400.259644	1360.297485	86.738922
850.340210	1097.985596	1397.183838	1356.168091	86.291451
850.640137	1098.695435	1395.613770	1351.973999	85.302437
850.939819	1098.652344	1392.194092	1350.188721	85.690155
851.239502	1096.910156	1388.193481	1346.274414	85.608833
851.539185	1096.178955	1387.333130	1343.069702	84.797256
851.838745	1095.748779	1385.676880	1342.015747	84.940704
852.138245	1094.458130	1379.504272	1341.929810	86.818115
852.437744	1095.920776	1376.944824	1341.800659	87.494247
852.737122	1094.608643	1377.912598	1341.757690	87.238121
853.036499	1095.641113	1375.912354	1343.349243	88.381569
853.335815	1094.802246	1372.449585	1339.520874	88.140099
853.635010	1095.963623	1369.954712	1337.950684	88.319321
853.934204	1095.899170	1371.395630	1337.649536	87.750809
854.233276	1095.985229	1372.707886	1334.444824	86.172775
854.532410	1095.791748	1372.428223	1333.606079	85.966370
854.831482	1096.157349	1368.943848	1333.025391	86.832756
855.130371	1094.974487	1366.298340	1329.648560	86.492241
855.429260	1096.049927	1364.212158	1327.411865	86.276855
855.728088	1094.479736	1360.727783	1324.615723	86.436684
856.026855	1094.221558	1355.888550	1321.109985	86.708847
856.325623	1094.264526	1354.361450	1316.786743	85.553574
856.624329	1094.737793	1354.124878	1316.786865	85.605293
856.922913	1095.124878	1352.404175	1314.592896	85.303413
857.221436	1097.426270	1348.661743	1312.872437	85.754677
857.519958	1097.727417	1345.715088	1312.678833	86.678268
857.818420	1097.942383	1343.327759	1311.883057	87.185585
858.116821	1099.856567	1341.951172	1311.495972	87.420128
858.415161	1102.179565	1343.241699	1310.484985	86.411507
858.713379	1102.738770	1342.553589	1310.377441	86.582916
859.011658	1107.018799	1343.542847	1310.592651	86.068985
859.309814	1108.115723	1343.306274	1312.291626	86.812973
859.607910	1107.470581	1341.456543	1312.420654	87.590759
859.905945	1108.868652	1340.897339	1311.603394	87.374863
860.203979	1107.707153	1340.209106	1313.560547	88.538353
860.501953	1107.879272	1338.531494	1312.549683	88.735504
860.799744	1107.707153	1335.713989	1307.817993	87.765282
861.097656	1109.642822	1335.950439	1304.957275	86.304855
861.395325	1109.513794	1336.337646	1300.655640	84.268845
861.693115	1108.416870	1335.090088	1301.537476	85.197807
861.990784	1108.804199	1335.434326	1299.558716	84.169975
862.288330	1107.384521	1333.261963	1299.451294	85.031410
862.585815	1104.739136	1334.401855	1296.784180	83.620468
862.883301	1106.244629	1334.294434	1294.160278	82.401146
863.180786	1106.072632	1332.702881	1292.568848	82.290962
863.478149	1107.018799	1330.745605	1289.557495	81.589996
863.775452	1105.319824	1330.272339	1289.622192	81.929451
864.072693	1108.072876	1331.455200	1292.547241	82.582344
864.369873	1109.750366	1331.390747	1293.945190	83.105263
864.667114	1108.997681	1328.680664	1296.526245	85.363266
864.964111	1108.223511	1327.970947	1297.773682	86.258194
865.261169	1106.653198	1327.347168	1296.827271	86.170944
865.558105	1105.190796	1328.938843	1294.956177	84.812080
865.855042	1105.362793	1327.261230	1295.859497	85.848602
866.151917	1103.878662	1326.099731	1298.010254	87.359673
866.448730	1100.652466	1325.863159	1298.892090	88.024071
866.745422	1102.373047	1327.454590	1299.300781	87.491730
867.042114	1100.781616	1327.583862	1300.870850	88.221893
867.338806	1096.609009	1324.422241	1300.118042	89.331528
867.635376	1094.673218	1321.066895	1297.838257	89.739716
867.931824	1096.458496	1322.765991	1296.633667	88.452736
868.228271	1096.781128	1320.077515	1295.601440	89.038750
868.524658	1096.307861	1319.561401	1297.795288	90.250496
868.821045	1098.824341	1318.120361	1299.989014	91.732025
869.117310	1098.458618	1315.474731	1299.774048	92.765198
869.413574	1096.888550	1314.958740	1300.333130	93.293167
869.709717	1097.856567	1312.205566	1300.204224	94.401024
870.005859	1095.038940	1308.957886	1302.247437	96.863091
870.301880	1096.437012	1308.463257	1297.988770	95.059814
870.597900	1095.490601	1308.334106	1298.311523	95.291100
870.893860	1095.813232	1311.990479	1299.946167	94.428505
871.189636	1092.371948	1311.753906	1297.623291	93.558899
871.485535	1092.845093	1311.108643	1295.859619	93.013481
871.781311	1092.006348	1310.269897	1293.020386	92.096931
872.077026	1090.264160	1310.700073	1289.514648	90.389305
872.372681	1091.963379	1311.818481	1287.707886	89.033417
872.668274	1093.210815	1312.807861	1286.826050	88.168411
872.963806	1092.715942	1314.592896	1283.427856	85.953911
873.259338	1093.275269	1318.679565	1281.943848	83.702301
873.554688	1093.812988	1319.346191	1285.901367	85.170776
873.850098	1096.695190	1320.507813	1284.352661	83.845795
874.145447	1096.501465	1318.335449	1286.073364	85.456650
874.440674	1100.265503	1317.582520	1289.213623	86.945847
874.735840	1099.362183	1320.335693	1290.396362	86.451164
875.031006	1101.577393	1323.110107	1290.826660	85.427231
875.326050	1100.437378	1323.970581	1291.880493	85.644150
875.621094	1101.190186	1325.389893	1293.923706	85.965111
875.916077	1103.599121	1325.583618	1294.805542	86.135033
876.210999	1106.502686	1326.917114	1297.192871	86.514381
876.505798	1107.363037	1322.895142	1297.795166	88.354416
876.800598	1106.997192	1321.776855	1295.579834	87.802841
877.095337	1104.007690	1322.077881	1295.730347	87.917862
877.390015	1106.201538	1323.088745	1295.536865	87.296677
877.684692	1105.728516	1322.335938	1295.945557	87.816490
877.979187	1107.470581	1319.884033	1293.515259	87.586105
878.273804	1105.534790	1319.862549	1294.655151	88.238853
878.568237	1106.136963	1322.701660	1296.182251	87.754509
878.862610	1103.061401	1325.884766	1295.493896	86.361008
879.156921	1100.889160	1330.896118	1296.010010	84.832588
879.451172	1098.071533	1337.219604	1303.344238	85.834984
879.745422	1098.759888	1348.382202	1309.688965	84.499290
880.039612	1097.555298	1361.480591	1321.884033	84.997055
880.333679	1098.587769	1381.999146	1341.972656	85.876892
880.627686	1097.017578	1415.164673	1373.911987	87.033455
880.921692	1096.221802	1469.020752	1427.230591	88.790161
881.215698	1096.350830	1556.386353	1511.262573	90.191238
881.509460	1099.362183	1671.239380	1627.083496	92.278786
881.803345	1099.469604	1812.289063	1762.992676	93.084312
882.097046	1101.512817	1959.898804	1908.881592	94.056610
882.390808	1102.115112	2098.131104	2046.017090	94.767754
882.684448	1103.685059	2225.781250	2168.397949	94.886063
882.978027	1101.082642	2336.439941	2277.271729	95.210434
883.271545	1102.566772	2432.086426	2369.734619	95.310204
883.565002	1103.147583	2508.117432	2443.464111	95.398239
883.858398	1102.588379	2560.855225	2493.083008	95.352547
884.151733	1101.211670	2581.567383	2509.429443	95.126984
884.445068	1100.846069	2557.413818	2488.458740	95.265923
884.738281	1099.233032	2489.964600	2420.149414	94.979965
885.031433	1099.168335	2383.198486	2320.179932	95.092125
885.324585	1100.738403	2262.624268	2202.681641	94.840919
885.617676	1098.738281	2142.071777	2085.613281	94.588646
885.910645	1097.576904	2026.401489	1972.265747	94.171585
886.203552	1099.168457	1921.829590	1870.855469	93.803749
886.496521	1099.942749	1824.979004	1778.779419	93.627960
886.789368	1100.673950	1740.645996	1694.296021	92.757500
887.082153	1102.760254	1661.023071	1620.953491	92.822449
887.374817	1103.728149	1595.316040	1555.526123	91.905838
887.667480	1103.577637	1537.825073	1497.691040	90.757797
887.960083	1104.222900	1492.916382	1453.578125	89.879364
888.252625	1103.642212	1455.427734	1419.036255	89.655205
888.545166	1103.190552	1428.241699	1391.462769	88.685188
888.837524	1105.599487	1404.969849	1367.674927	87.542213
889.129883	1107.255493	1386.171875	1350.317871	87.145248
889.422241	1106.696411	1371.417358	1335.219238	86.325935
889.714478	1093.511841	1322.292847	1322.056396	99.896645
890.006714	1107.707153	1357.544556	1303.129272	78.219719
890.298767	1110.072998	1317.324585	1272.136108	78.196320
890.590881	1113.858398	1319.453735	1272.372803	77.100197
890.882935	1094.694824	1328.207642	1288.933838	83.181305
>>>>>End Processed Spectral Data<<<<<
