Jaz Data File
++++++++++++++++++++++++++++++++++++
Date: Mon Apr 22 19:25:23 2019
User: jaz
Dark Spectrum Present: Yes
Reference Spectrum Present: Yes
Processed Spectrum Present: Yes
Spectrometers: JAZA2928
Integration Time (usec): 40000 (JAZA2928)
Spectra Averaged: 10 (JAZA2928)
Boxcar Smoothing: 5 (JAZA2928)
Correct for Electrical Dark: No (JAZA2928)
Strobe/Lamp Enabled: Yes (JAZA2928)
Correct for Detector Non-linearity: No (JAZA2928)
Correct for Stray Light: No (JAZA2928)
Number of Pixels in Processed Spectrum: 2048
>>>>>Begin Processed Spectral Data<<<<<
W	D	R	S	P
190.104553	0.000000	0.000000	0.000000	0.000000
190.488098	0.000000	0.000000	0.000000	0.000000
190.871613	1085.940918	1056.130981	1080.026245	19.841280
191.255096	1070.326050	1101.319336	1075.531250	16.794605
191.638535	0.000000	0.000000	0.000000	0.000000
192.021942	909.790100	910.671936	905.208923	-519.504456
192.405334	1011.974854	1014.813904	1007.694702	-150.759964
192.788696	1115.987793	1119.256958	1112.417358	-109.215492
193.172012	1123.859741	1125.967529	1118.740723	-242.862106
193.555313	1129.924927	1129.688354	1124.870605	2136.480957
193.938568	1131.301514	1135.388062	1129.731445	-38.420406
194.321793	1133.688843	1137.689331	1133.710449	0.540095
194.704987	1135.775146	1138.614136	1135.108521	-23.481102
195.088150	1136.871948	1135.818115	1135.129883	165.307541
195.471298	1134.785767	1136.377319	1132.871582	-120.271515
195.854401	1133.774902	1137.474121	1132.979004	-21.515312
196.237457	1133.538208	1135.990112	1134.570679	42.108932
196.620499	1134.333984	1133.925415	1135.452515	-273.767548
197.003494	1134.441528	1132.763916	1132.527466	114.094444
197.386475	1128.849487	1133.882446	1129.924927	21.367935
197.769424	1126.268555	1133.516724	1128.677490	33.235092
198.152344	1126.440552	1134.656738	1131.086304	56.543896
198.535217	1125.193237	1135.603027	1132.936035	74.379959
198.918076	1121.085083	1139.818726	1133.495239	66.245293
199.300903	1118.375122	1144.485840	1133.495239	57.907703
199.683670	1118.031006	1145.217163	1134.936401	62.183838
200.066422	1119.235474	1145.432251	1137.130249	68.309074
200.449142	1119.106567	1147.733643	1136.527954	60.856327
200.831848	1116.633057	1148.787476	1135.409546	58.394741
201.214508	1114.181152	1148.873535	1135.990234	62.864182
201.597137	1114.589722	1148.615356	1136.871948	65.486588
201.979736	1114.503662	1149.647827	1136.721436	63.218952
202.362274	1113.815308	1148.249878	1132.226440	53.467003
202.744827	1111.922729	1148.228271	1128.591553	45.912613
203.127319	1111.621582	1146.314087	1129.753052	52.263363
203.509796	1112.202271	1145.088013	1130.118652	54.480698
203.892227	1112.417480	1143.130737	1125.989014	44.187866
204.274643	1109.793457	1141.022949	1121.966919	38.980659
204.657013	1108.890137	1140.205688	1120.655029	37.568851
205.039352	1109.492310	1139.797119	1120.289307	35.627998
205.421661	1111.212891	1139.861572	1119.751587	29.804850
205.803940	1110.331177	1139.904541	1119.471924	30.908716
206.186188	1110.911865	1139.388428	1118.245972	25.754887
206.568405	1111.772217	1138.528198	1116.998535	19.533272
206.950592	1114.116577	1138.958252	1117.063110	11.861250
207.332748	1113.793945	1135.925659	1114.761841	4.373342
207.714859	1111.815186	1136.205322	1116.245728	18.165302
208.096939	1107.836182	1135.409546	1117.686768	35.725006
208.478989	1107.728638	1133.839355	1121.214111	51.647274
208.861008	1107.492065	1134.570679	1123.343506	58.538597
209.243011	1105.169067	1134.936401	1123.902710	62.933559
209.624969	1102.717163	1136.334351	1125.085693	66.538971
210.006897	1102.502075	1134.678223	1123.536987	65.374237
210.388794	1100.716919	1135.990234	1124.547974	67.561142
210.770645	1099.297363	1136.828979	1129.086182	79.369934
211.152481	1097.834839	1136.893555	1128.053833	77.368118
211.534286	1097.791870	1140.657349	1127.150513	68.490181
211.916061	1099.103882	1141.130615	1125.322266	62.385014
212.297791	1100.114746	1145.475220	1125.257690	55.429192
212.679489	1101.383667	1147.733521	1123.494019	47.703175
213.061157	1101.878418	1147.475464	1120.224731	40.235748
213.442795	1104.115234	1147.819580	1119.256958	34.645809
213.824402	1103.556152	1147.970215	1118.547363	33.753300
214.205963	1105.169067	1150.508057	1118.547119	29.506727
214.587524	1106.975830	1149.475708	1119.063354	28.441315
214.969025	1105.685425	1149.948853	1117.923340	27.647915
215.350510	1105.448730	1150.551025	1118.934326	29.900021
215.731949	1101.448364	1150.766113	1120.697876	39.031612
216.113358	1102.717285	1150.809082	1122.719727	41.592209
216.494736	1103.039917	1149.540161	1125.042480	47.317093
216.876083	1102.007568	1149.970337	1124.246826	46.367752
217.257401	1099.598633	1150.228394	1126.505249	53.143875
217.638702	1100.200928	1152.594238	1127.085938	51.313820
218.019943	1099.168457	1151.519043	1126.290039	51.807598
218.401169	1097.168335	1151.454590	1127.623535	56.101128
218.782349	1096.888550	1155.368896	1128.935547	54.799603
219.163498	1098.523193	1157.369263	1128.462402	50.877159
219.544632	1101.856934	1159.218872	1130.419556	49.793682
219.925705	1105.599365	1161.563232	1133.430786	49.731052
220.306778	1105.814453	1164.509888	1136.786011	52.766552
220.687805	1107.900757	1166.639282	1135.560059	47.088860
221.068802	1108.803955	1169.843872	1138.076294	47.956059
221.449738	1110.094604	1175.522095	1139.603516	45.101700
221.830673	1108.309326	1179.156860	1140.463989	45.385719
222.211563	1108.954590	1185.587891	1142.528687	43.811367
222.592438	1108.954590	1191.846680	1147.131470	46.056118
222.973267	1107.922119	1195.911621	1148.830566	46.492416
223.354065	1108.631958	1201.761841	1151.777222	46.328056
223.734848	1106.352051	1206.730225	1154.917480	48.382462
224.115555	1108.330933	1213.935425	1159.606201	48.554062
224.496262	1107.900757	1221.119019	1161.541870	47.378498
224.876923	1108.718018	1231.227905	1168.596313	48.876297
225.257568	1106.029419	1241.035522	1173.801270	50.199100
225.638168	1108.717896	1250.284058	1180.791382	50.911522
226.018723	1111.836670	1262.651245	1191.975586	53.137383
226.399277	1112.675537	1279.104980	1203.805054	54.755646
226.779785	1114.353149	1296.892090	1214.300903	54.754211
227.160263	1116.073975	1316.701050	1226.087402	54.834785
227.540695	1116.353394	1346.403564	1242.605713	54.880341
227.921112	1115.987915	1386.473145	1264.328735	54.842484
228.301483	1114.374756	1440.436646	1293.300049	54.874641
228.681824	1115.105957	1509.004272	1331.799561	55.012573
229.062134	1113.922974	1591.487793	1374.493042	54.562241
229.442413	1115.170410	1669.604736	1414.110840	53.918095
229.822647	1109.901123	1732.429810	1446.394409	54.052654
230.202881	1106.524292	1781.425049	1467.966919	53.554932
230.583054	1106.610229	1816.418457	1480.850098	52.724083
230.963196	1104.696167	1848.357910	1494.529297	52.420757
231.343292	1104.954224	1876.791748	1504.939087	51.822418
231.723404	1103.663696	1890.599731	1510.832397	51.741016
232.103439	1103.018433	1883.308716	1506.509399	51.710365
232.483459	1102.996948	1859.865112	1489.561035	51.074165
232.863434	1102.652710	1820.569824	1465.299927	50.513802
233.243393	1103.534668	1769.531128	1436.264038	49.959629
233.623306	1103.082886	1726.041870	1414.820435	50.041424
234.003174	1107.621094	1700.425781	1397.829224	48.955101
234.383041	1107.298462	1685.112183	1390.301270	48.978207
234.762848	1106.997314	1678.293823	1389.677612	49.480488
235.142639	1108.072754	1668.916382	1386.773926	49.693203
235.522385	1106.739258	1663.324341	1384.816650	49.961346
235.902115	1107.513550	1663.001831	1381.934692	49.401787
236.281799	1106.459717	1673.992310	1383.633667	48.838421
236.661438	1108.266357	1684.789429	1388.989380	48.692417
237.041077	1109.341797	1696.210205	1392.774780	48.295834
237.420654	1109.771973	1703.372314	1397.786133	48.519878
237.800217	1111.019409	1709.674194	1399.313232	48.156940
238.179733	1109.965576	1713.717651	1402.324341	48.423645
238.559219	1110.610840	1719.245239	1405.034302	48.374435
238.938690	1110.374146	1728.042114	1407.421753	48.091793
239.318100	1108.352417	1744.603394	1412.131958	47.745239
239.697510	1107.728638	1762.949707	1419.874878	47.639835
240.076859	1109.040771	1791.447998	1434.134644	47.639278
240.456177	1111.019409	1828.248169	1453.384277	47.734402
240.835464	1109.083740	1878.577026	1475.451660	47.611580
241.214722	1105.642456	1948.692993	1504.853149	47.353115
241.593948	1105.879028	2045.264160	1544.513794	46.693817
241.973129	1104.975586	2163.407959	1596.090210	46.400188
242.352295	1103.964722	2299.984131	1655.452393	46.110260
242.731415	1105.577759	2437.377197	1713.932739	45.679173
243.110519	1106.545654	2551.197754	1763.551636	45.478493
243.489578	1107.685547	2640.972412	1799.491699	45.119160
243.868607	1108.954590	2704.593262	1826.806763	44.988392
244.247604	1107.040405	2749.286865	1844.292969	44.892929
244.626541	1106.137085	2783.979492	1856.187012	44.703239
245.005493	1107.363037	2812.025879	1867.328125	44.581547
245.384369	1111.535645	2835.254639	1878.318848	44.484234
245.763229	1108.976196	2866.355225	1890.901123	44.493813
246.142059	1109.901001	2917.522705	1911.742310	44.358910
246.520859	1110.481689	3011.448242	1951.273926	44.229721
246.899612	1107.707153	3150.024170	2011.173706	44.237331
247.278336	1106.309204	3317.572510	2081.591309	44.105202
247.657043	1106.330688	3471.398193	2150.847168	44.164345
248.035690	1106.137085	3596.596680	2207.993896	44.243114
248.414322	1105.534790	3703.921143	2254.860107	44.232273
248.792908	1104.825073	3784.081787	2289.294434	44.208878
249.171478	1105.061646	3831.851318	2310.178711	44.195457
249.550003	1102.158081	3843.164307	2314.609375	44.233803
249.928482	1102.158203	3801.654053	2297.489014	44.279781
250.306961	1100.996704	3715.320313	2256.559082	44.201199
250.685364	1100.996582	3567.387695	2188.873291	44.108036
251.063782	1102.566650	3382.203857	2107.852539	44.098503
251.442123	1102.824829	3203.773193	2031.305420	44.193405
251.820450	1105.212036	3077.284424	1975.406128	44.125870
252.198761	1103.857300	3009.146973	1944.090576	44.100029
252.576996	1104.566895	2958.043945	1923.442505	44.180511
252.955246	1105.276733	2910.575684	1903.010254	44.188446
253.333420	1103.340942	2869.366455	1885.351929	44.280842
253.711578	1103.383911	2838.244385	1874.705444	44.460148
254.089706	1104.072266	2820.155762	1868.941284	44.570618
254.467804	1106.352173	2801.766357	1864.467651	44.715649
254.845871	1106.502686	2784.409180	1860.746826	44.951500
255.223877	1107.621094	2757.760742	1849.734497	44.972763
255.601898	1107.406006	2719.110840	1835.582397	45.180504
255.979828	1104.029175	2669.427490	1814.310913	45.373867
256.357727	1103.233521	2625.421875	1791.211060	45.196609
256.735657	1104.803589	2602.343994	1777.661255	44.930851
257.113525	1105.685425	2616.797607	1781.941284	44.752193
257.491333	1110.094482	2666.932617	1800.158691	44.324722
257.869110	1112.911987	2739.887695	1829.043823	44.016136
258.246887	1113.793945	2846.051514	1871.586670	43.745960
258.624573	1111.686035	2998.500244	1934.841797	43.626751
259.002289	1110.137573	3210.698975	2020.314575	43.330177
259.379944	1108.137207	3491.164063	2138.329590	43.230415
259.757538	1107.986572	3829.807861	2275.851807	42.907490
260.135162	1112.094727	4167.957031	2413.869141	42.599251
260.512665	1114.224121	4430.354980	2526.614258	42.591507
260.890228	1113.729370	4604.785156	2603.527100	42.674706
261.267700	1112.654053	4711.680176	2644.607422	42.565777
261.645142	1108.266357	4771.945801	2669.341553	42.609493
262.022552	1104.997192	4809.756836	2680.310791	42.521343
262.399994	1102.394653	4815.177246	2681.084961	42.520405
262.777313	1103.792725	4772.375977	2659.275635	42.400097
263.154602	1104.395020	4660.813965	2610.151367	42.339115
263.531921	1107.857666	4471.070313	2526.592773	42.183926
263.909149	1108.287964	4217.984863	2416.901611	42.081711
264.286377	1104.523926	3950.252930	2302.951904	42.113216
264.663574	1103.104370	3746.120850	2212.273926	41.966045
265.040710	1102.330200	3628.600098	2151.922607	41.547119
265.417816	1101.469849	3578.636963	2130.349854	41.534542
265.794891	1102.975464	3585.153809	2126.715088	41.243599
266.171936	1106.696289	3623.459961	2137.533691	40.958847
266.548950	1106.610229	3677.552490	2152.116211	40.666256
266.925934	1106.954468	3735.409180	2171.538086	40.502266
267.302887	1108.567505	3797.868164	2193.196777	40.331276
267.679810	1105.620972	3870.414795	2217.027588	40.198532
268.056671	1106.244629	3946.532227	2245.525635	40.111465
268.433502	1108.524536	4030.349121	2273.614990	39.875439
268.810333	1109.449341	4110.165527	2300.263428	39.684326
269.187073	1108.503052	4182.066895	2330.890869	39.771023
269.563843	1111.578613	4243.815918	2352.312744	39.611755
269.940521	1108.395386	4289.671387	2369.605469	39.644787
270.317200	1105.298218	4349.291016	2389.758545	39.595043
270.693848	1106.180054	4451.948730	2426.967529	39.476357
271.070435	1104.158203	4608.871582	2484.652100	39.389637
271.447021	1101.254761	4783.947266	2550.014893	39.339699
271.823547	1102.717285	4933.234863	2605.527100	39.232552
272.200043	1102.717285	5055.529785	2648.908936	39.116241
272.576538	1101.211792	5159.607422	2690.139893	39.151634
272.952972	1101.297729	5254.608398	2727.757568	39.160564
273.329346	1101.297852	5336.961914	2755.976074	39.065380
273.705688	1099.856689	5394.947754	2778.387451	39.080215
274.082062	1103.878662	5434.350586	2788.668213	38.905453
274.458344	1104.545410	5430.414551	2788.474365	38.926952
274.834595	1104.975586	5373.891113	2763.224121	38.844727
275.210846	1107.062012	5279.556641	2724.574219	38.766071
275.587006	1109.406372	5188.491699	2685.816650	38.646168
275.963165	1107.535156	5131.560547	2660.050293	38.581146
276.339294	1108.223389	5102.933105	2648.543213	38.558994
276.715393	1108.804199	5097.857422	2642.176758	38.439510
277.091461	1108.352417	5095.986328	2638.627930	38.375526
277.467438	1107.363159	5100.395508	2637.509521	38.320412
277.843445	1106.395142	5116.333008	2639.014893	38.220535
278.219452	1103.599121	5136.120605	2645.144775	38.227837
278.595337	1103.642090	5168.790527	2650.048584	38.040592
278.971191	1105.470215	5202.988770	2662.888916	38.008827
279.347046	1102.846191	5224.970215	2667.943359	37.968220
279.722870	1103.512939	5245.789551	2672.610596	37.880081
280.098663	1105.126099	5272.502930	2676.546631	37.707664
280.474396	1104.244263	5315.346680	2687.193115	37.589890
280.850098	1105.577759	5378.472656	2707.948242	37.500816
281.225800	1106.889771	5478.054688	2736.640137	37.284119
281.601440	1108.416870	5604.263672	2774.149902	37.050488
281.977051	1109.771973	5762.928711	2826.758789	36.899399
282.352600	1110.804321	5917.786621	2879.001709	36.783936
282.728149	1108.739502	6036.618652	2922.749023	36.811161
283.103668	1107.104858	6125.898438	2953.290527	36.785450
283.479156	1107.836182	6205.370605	2981.487549	36.756035
283.854553	1106.352173	6286.821777	3007.404785	36.696529
284.229950	1106.266113	6379.285645	3040.484131	36.681412
284.605347	1105.190796	6472.673340	3071.004150	36.624496
284.980652	1102.545288	6548.875488	3097.781494	36.634506
285.355988	1103.169067	6627.101074	3127.247559	36.641987
285.731201	1103.556152	6698.250000	3155.939209	36.684456
286.106445	1102.781982	6752.944824	3173.791260	36.653973
286.481659	1102.846313	6808.629395	3197.321045	36.707924
286.856781	1104.201294	6870.120117	3215.925537	36.624241
287.231934	1105.771362	6928.987793	3230.163818	36.481430
287.607025	1107.169556	6960.324707	3238.508789	36.413509
287.982056	1108.761108	6965.078125	3237.132568	36.343178
288.357086	1108.416870	6943.226074	3227.066406	36.310516
288.732086	1109.750244	6915.803223	3209.365479	36.162525
289.107025	1111.320313	6892.854492	3190.244629	35.958004
289.481934	1108.933105	6867.646484	3174.372070	35.866325
289.856842	1108.954590	6862.871582	3167.725830	35.780342
290.231659	1109.341675	6882.121582	3165.058594	35.610519
290.606506	1108.244751	6897.220215	3161.681885	35.471508
290.981262	1107.900757	6926.707520	3168.349365	35.410160
291.355988	1106.266113	6951.720703	3178.200195	35.445217
291.730713	1105.577759	6984.929688	3188.825195	35.433285
292.105377	1101.792358	7000.609375	3197.708008	35.531116
292.480011	1100.673950	7013.320801	3206.849121	35.621529
292.854614	1098.802734	7021.666016	3222.334473	35.853127
293.229187	1098.308105	7052.701660	3244.832031	36.049412
293.603729	1097.834839	7084.898926	3269.458740	36.271935
293.978241	1098.114502	7114.063965	3289.719482	36.429913
294.352692	1096.200317	7137.701660	3317.271240	36.763557
294.727081	1095.963745	7172.070801	3347.855713	37.061428
295.101501	1097.555298	7206.290527	3382.010254	37.396530
295.475830	1096.996216	7287.849609	3429.156250	37.671059
295.850189	1097.340332	7413.284180	3495.400635	37.968361
296.224457	1100.889038	7610.577637	3588.379883	38.212132
296.598694	1102.416138	7846.520508	3694.543945	38.435467
296.972931	1104.997192	8089.367676	3809.698242	38.725052
297.347107	1104.029297	8281.477539	3899.924072	38.953884
297.721283	1105.556274	8400.868164	3962.361572	39.159466
298.095367	1105.255249	8443.261719	3996.279785	39.397953
298.469452	1107.943848	8421.086914	4005.077393	39.615437
298.843475	1109.987061	8373.726563	3997.828857	39.756958
299.217529	1109.793457	8323.332031	3986.322021	39.876804
299.591492	1111.858276	8247.838867	3972.255615	40.084156
299.965424	1111.492554	8143.653320	3941.606445	40.245296
300.339325	1109.857910	7988.924805	3886.632080	40.365562
300.713196	1107.513550	7790.879395	3816.924316	40.539612
301.087036	1107.319946	7579.626953	3732.634521	40.562267
301.460815	1109.965454	7387.646973	3661.270996	40.640888
301.834564	1109.728882	7243.758301	3602.962402	40.645931
302.208282	1108.029785	7116.881348	3554.698486	40.717743
302.582001	1107.040527	7010.502930	3510.714844	40.716347
302.955658	1106.072632	6917.976074	3472.452148	40.716084
303.329254	1104.287354	6834.223145	3437.114258	40.712971
303.702820	1103.082886	6764.752930	3403.045410	40.623394
304.076416	1102.953857	6701.927734	3372.740723	40.539337
304.449921	1105.104614	6637.296387	3348.221191	40.546619
304.823395	1106.051025	6586.451172	3321.228760	40.419998
305.196838	1106.567261	6530.292480	3292.773438	40.308201
305.570251	1106.481201	6469.038574	3266.275879	40.275459
305.943604	1106.223145	6403.201660	3240.422852	40.290890
306.316986	1110.094604	6367.820801	3220.377441	40.136795
306.690277	1108.868652	6345.474609	3208.031982	40.086334
307.063507	1108.373901	6343.840332	3204.246338	40.032204
307.436768	1109.449341	6365.262207	3213.280273	40.028652
307.809937	1110.653809	6409.956055	3227.518066	39.946095
308.183136	1111.298950	6479.620117	3251.004883	39.858009
308.556244	1108.223511	6569.566895	3278.234375	39.734013
308.929321	1107.664185	6653.534180	3310.302979	39.716736
309.302399	1105.943481	6743.825195	3349.941650	39.802147
309.675446	1106.309082	6841.664551	3385.817383	39.744846
310.048401	1106.911377	6937.526367	3419.025635	39.654720
310.421356	1103.190552	7031.215820	3456.277588	39.694279
310.794281	1103.706543	7135.378418	3491.765625	39.591991
311.167145	1103.620728	7231.713867	3529.641357	39.588505
311.539978	1103.448608	7308.023926	3550.913086	39.446121
311.912781	1100.932129	7343.147949	3560.204590	39.397427
312.285553	1101.641846	7331.144043	3549.880371	39.300709
312.658295	1102.480591	7282.859375	3528.760010	39.257774
313.031006	1104.846558	7225.992188	3506.111816	39.229015
313.403656	1103.190308	7173.060547	3480.130371	39.159649
313.776276	1101.985962	7139.852051	3461.138428	39.072617
314.148865	1102.394653	7134.390137	3458.342285	39.057518
314.521454	1101.168701	7136.002930	3459.331299	39.075848
314.893982	1099.577148	7119.096680	3453.889893	39.111305
315.266449	1100.523438	7070.789551	3434.038330	39.085609
315.638885	1099.770752	7000.157715	3409.411865	39.143894
316.011322	1101.728027	6926.600098	3379.838135	39.110046
316.383667	1100.394409	6864.806641	3357.512695	39.156086
316.756042	1104.696045	6818.005859	3339.295898	39.112179
317.128326	1104.265869	6778.517578	3318.045410	39.014473
317.500610	1107.233887	6732.468750	3295.827393	38.906704
317.872833	1106.760864	6660.287598	3269.695313	38.947044
318.245087	1106.717773	6574.492188	3232.120850	38.871449
318.617218	1108.180298	6490.954590	3193.879639	38.747662
318.989319	1109.513794	6426.925293	3165.682617	38.668606
319.361420	1108.847046	6388.383301	3144.540039	38.558178
319.733490	1109.040527	6360.379883	3129.097656	38.467464
320.105530	1109.535278	6337.150391	3115.913086	38.380363
320.477509	1108.588867	6314.438965	3105.395508	38.356976
320.849457	1103.577515	6289.725098	3095.824463	38.414776
321.221375	1102.846313	6273.335938	3091.910156	38.469543
321.593231	1101.125732	6265.291992	3087.909424	38.472500
321.965088	1098.308105	6269.142090	3084.618652	38.413738
322.336884	1096.437012	6281.552734	3088.275146	38.414536
322.708618	1097.146729	6312.072266	3095.329834	38.316616
323.080414	1096.652100	6366.401855	3113.933838	38.280407
323.452118	1094.565674	6457.295410	3148.583740	38.301727
323.823761	1091.855713	6583.870117	3193.814941	38.273010
324.195343	1090.070557	6713.713867	3244.617188	38.312290
324.566925	1091.554565	6843.923340	3290.020264	38.218445
324.938507	1092.500977	6965.335938	3332.971924	38.149734
325.310059	1092.974121	7070.747070	3368.782959	38.071182
325.681519	1093.554810	7176.157715	3403.646973	37.978680
326.052948	1097.921021	7269.933105	3437.156982	37.900700
326.424408	1098.007202	7340.715820	3457.976563	37.803612
326.795776	1097.727417	7364.848145	3466.881104	37.802906
327.167084	1098.566284	7339.898926	3452.492188	37.715115
327.538391	1102.287109	7270.729492	3427.585938	37.696693
327.909668	1105.491821	7175.964355	3387.021973	37.584064
328.280884	1107.578125	7081.910645	3349.640869	37.528255
328.652100	1109.169800	6998.222168	3319.250000	37.528622
329.023254	1111.879761	6936.085449	3291.741455	37.427624
329.394348	1110.417114	6876.121582	3266.060303	37.387333
329.765442	1109.062134	6803.187500	3235.562256	37.345505
330.136475	1108.352417	6736.382813	3204.676758	37.247921
330.507538	1109.384644	6665.556641	3176.995850	37.212875
330.878479	1109.083618	6619.228516	3155.315674	37.135719
331.249420	1109.836426	6594.365234	3146.174805	37.128777
331.620331	1109.363281	6598.559570	3139.829590	36.990231
331.991211	1109.556763	6614.367676	3143.357178	36.945873
332.362030	1104.631592	6648.609375	3156.649170	37.013454
332.732819	1101.383911	6686.248047	3168.930420	37.020531
333.103577	1099.964233	6714.616699	3183.104004	37.101845
333.474304	1102.201050	6744.190430	3194.331299	37.081432
333.845001	1103.792725	6763.806152	3206.676758	37.153339
334.215668	1102.351685	6780.667480	3213.387451	37.177143
334.586273	1101.362305	6802.648926	3226.443115	37.273705
334.956818	1102.910767	6819.038574	3235.928223	37.315777
335.327362	1102.631226	6843.492676	3247.563965	37.362556
335.697876	1103.427002	6852.806152	3252.661133	37.382023
336.068329	1102.545166	6861.108887	3261.393555	37.489357
336.438751	1105.900391	6856.420410	3263.866943	37.526459
336.809174	1110.997925	6857.625000	3258.941406	37.377464
337.179504	1110.395752	6867.883301	3259.070313	37.319656
337.549896	1110.739868	6894.811035	3272.599121	37.376083
337.920135	1109.750488	6938.881348	3287.869629	37.366104
338.290375	1111.643066	6985.682617	3310.560791	37.434505
338.660614	1112.567871	7031.601563	3326.282959	37.399940
339.030792	1111.707764	7072.187500	3340.671875	37.395718
339.400940	1111.083984	7105.461426	3355.749023	37.446175
339.771027	1109.341675	7136.647949	3367.944336	37.472836
340.141083	1110.976318	7170.501465	3378.934570	37.427986
340.511139	1111.815308	7208.527832	3385.839111	37.299183
340.881134	1107.190918	7245.671875	3404.142334	37.418888
341.251068	1106.653198	7272.943848	3417.004150	37.467438
341.621002	1104.072266	7289.419922	3418.746094	37.421886
341.990875	1103.878662	7297.398926	3422.897461	37.442661
342.360718	1103.943237	7304.431641	3423.950928	37.416534
342.730560	1105.642456	7327.487793	3430.188477	37.361038
343.100311	1106.631836	7369.987793	3447.567139	37.375095
343.470032	1106.911499	7429.909668	3463.999023	37.278004
343.839752	1107.255615	7508.500000	3493.745117	37.281651
344.209442	1105.319824	7596.145020	3528.308350	37.329437
344.579041	1104.050903	7693.920410	3570.442383	37.427017
344.948639	1105.685425	7780.275391	3607.371338	37.480747
345.318176	1106.201660	7865.125000	3639.977539	37.487862
345.687714	1106.782349	7949.564453	3675.143555	37.533875
346.057190	1106.416748	8022.046875	3703.340820	37.551517
346.426636	1105.061646	8068.547363	3729.515625	37.688797
346.796051	1102.996948	8086.076660	3744.054932	37.820824
347.165405	1101.362427	8073.623535	3742.485107	37.880432
347.534729	1100.652710	8034.264160	3733.301025	37.969368
347.904083	1100.007324	7972.708008	3712.308838	38.009827
348.273315	1102.287109	7897.063965	3686.886963	38.038040
348.642517	1102.286987	7822.968750	3659.829834	38.054813
349.011719	1101.641724	7757.713867	3636.601318	38.084915
349.380890	1101.878418	7711.687012	3619.653076	38.091492
349.749969	1103.061401	7674.155762	3604.554443	38.068138
350.119049	1104.868164	7654.217285	3596.424316	38.042805
350.488098	1106.481201	7655.551270	3593.456055	37.974472
350.857117	1107.621216	7670.198242	3595.778809	37.914337
351.226074	1110.073120	7699.664063	3605.156250	37.864006
351.595001	1110.610840	7740.421875	3622.513428	37.887997
351.963867	1110.180542	7791.288574	3644.946045	37.939301
352.332764	1108.395386	7853.146484	3670.798584	37.991074
352.701538	1108.933105	7917.110840	3697.705566	38.024456
353.070343	1107.255371	8003.551758	3731.236572	38.049137
353.439056	1105.836060	8092.981445	3770.036865	38.130032
353.807770	1105.147583	8187.166016	3810.493896	38.200214
354.176453	1105.685425	8283.155273	3850.907227	38.247765
354.545105	1101.942993	8397.578125	3899.300049	38.342884
354.913666	1101.211792	8531.207031	3955.070557	38.409969
355.282227	1098.157593	8684.582031	4014.540039	38.442120
355.650757	1097.189697	8833.481445	4075.687500	38.500328
356.019226	1099.125488	8996.340820	4149.998047	38.632256
356.387695	1100.437500	9182.535156	4224.544434	38.654655
356.756104	1100.867676	9411.251953	4316.125488	38.689640
357.124451	1103.319580	9663.155273	4417.493164	38.717724
357.492828	1102.566772	9899.399414	4515.204590	38.793934
357.861084	1103.276489	10098.499023	4599.451660	38.867023
358.229401	1102.846191	10256.109375	4666.040527	38.928131
358.597595	1104.179810	10363.456055	4706.862793	38.908905
358.965759	1103.857300	10459.769531	4747.211914	38.941734
359.333923	1104.308960	10550.339844	4796.702148	39.089359
359.702057	1107.836182	10690.334961	4859.183105	39.147900
360.070129	1108.094360	10860.077148	4924.330566	39.132927
360.438141	1106.545654	11058.403320	5010.319824	39.226589
360.806122	1108.890137	11282.582031	5105.277832	39.281590
361.174133	1109.019043	11550.722656	5218.732910	39.358654
361.542053	1110.739746	11830.155273	5333.327637	39.391960
361.909912	1108.890137	12083.261719	5435.511719	39.424778
362.277771	1109.470825	12281.199219	5516.940918	39.452000
362.645599	1112.567993	12406.440430	5575.916016	39.520088
363.013367	1111.922852	12446.811523	5599.123535	39.587513
363.381134	1112.309814	12429.625977	5590.477051	39.569160
363.748810	1109.148193	12337.292969	5549.353516	39.545315
364.116455	1108.545898	12161.850586	5479.689453	39.546032
364.484100	1107.857544	11911.327148	5378.602051	39.531231
364.851715	1106.438110	11564.336914	5237.810059	39.504803
365.219238	1106.330688	11116.797852	5061.207520	39.507420
365.586761	1108.610596	10644.007813	4874.582520	39.494652
365.954224	1110.374146	10229.397461	4713.616699	39.513470
366.321686	1110.395752	9906.173828	4588.117188	39.538528
366.689117	1108.954590	9687.071289	4504.881348	39.588253
367.056458	1109.642822	9550.624023	4447.820313	39.547268
367.423737	1108.847168	9436.072266	4406.202148	39.597286
367.791077	1109.987061	9330.467773	4366.369141	39.613037
368.158295	1109.277344	9255.921875	4334.236328	39.586346
368.525543	1110.782959	9182.815430	4306.920898	39.595207
368.892700	1108.890137	9119.925781	4287.262695	39.674927
369.259827	1105.685425	9063.208984	4266.141602	39.716579
369.626953	1100.996582	9032.152344	4252.053711	39.730114
369.994019	1098.523315	9003.932617	4237.041016	39.700886
370.361053	1098.544800	8992.319336	4229.835938	39.667854
370.728027	1098.566284	9000.920898	4226.609863	39.583691
371.094971	1098.200684	9007.116211	4232.029785	39.624004
371.461914	1097.942505	9032.130859	4242.289063	39.630352
371.828796	1096.931641	9066.628906	4260.570801	39.695850
372.195618	1096.910034	9099.794922	4277.604980	39.744354
372.562408	1097.942383	9130.400391	4290.229980	39.742352
372.929199	1098.845703	9166.985352	4305.178223	39.740665
373.295898	1100.372803	9202.795898	4320.664063	39.744793
373.662598	1102.437622	9240.972656	4341.290527	39.796513
374.029236	1105.534790	9269.858398	4361.637207	39.882084
374.395844	1102.179565	9303.324219	4381.209473	39.982586
374.762421	1101.190186	9331.479492	4404.266113	40.133171
375.128967	1102.996826	9382.688477	4429.882324	40.181274
375.495483	1103.921753	9458.161133	4462.875488	40.206577
375.861908	1105.061646	9573.099609	4515.011230	40.268475
376.228333	1106.373657	9735.420898	4584.503418	40.307232
376.594727	1104.954224	9951.856445	4679.289551	40.402111
376.961090	1103.771362	10193.457031	4781.388184	40.459229
377.327393	1106.373779	10423.506836	4880.476074	40.507122
377.693665	1108.503052	10601.615234	4961.905273	40.591560
378.059906	1106.567261	10739.804688	5018.062988	40.604164
378.426086	1106.094238	10820.609375	5056.583984	40.665844
378.792267	1107.707153	10859.777344	5076.779785	40.699795
379.158386	1108.373901	10854.506836	5080.048828	40.751289
379.524445	1109.771851	10825.342773	5073.445801	40.797127
379.890503	1110.008423	10760.688477	5052.970215	40.856831
380.256531	1108.201782	10656.246094	5026.729980	41.040115
380.622467	1108.588989	10504.075195	4974.272461	41.144051
380.988403	1110.460083	10320.676758	4909.145996	41.244263
381.354279	1108.029785	10149.300781	4853.074707	41.421661
381.720154	1109.642944	10012.982422	4805.584961	41.511860
382.085968	1110.116089	9927.724609	4785.453125	41.681789
382.451752	1111.385010	9885.675781	4784.528320	41.862564
382.817474	1110.417114	9900.688477	4800.229492	41.976093
383.183197	1108.244873	9955.663086	4838.019043	42.156639
383.548859	1107.707031	10022.509766	4887.551758	42.399647
383.914490	1107.685547	10095.939453	4930.718750	42.533657
384.280060	1106.416504	10161.324219	4963.969727	42.601791
384.645599	1106.352051	10229.569336	5004.490723	42.727676
385.011108	1106.093994	10300.351563	5051.034180	42.906567
385.376617	1107.685669	10384.232422	5096.309082	42.996857
385.742035	1104.846680	10474.286133	5151.326172	43.188065
386.107452	1104.954224	10567.115234	5201.740723	43.296520
386.472778	1106.330811	10662.116211	5259.620117	43.463608
386.838135	1104.932617	10749.223633	5313.970703	43.642796
387.203430	1106.459595	10808.714844	5357.566895	43.815662
387.568634	1105.448730	10854.484375	5389.463867	43.942966
387.933838	1104.997070	10884.187500	5416.865234	44.092281
388.299042	1109.621338	10910.061523	5453.944824	44.327835
388.664124	1109.470825	10930.428711	5482.550293	44.528034
389.029236	1108.330933	10948.539063	5509.758301	44.729008
389.394318	1108.180420	10954.991211	5531.588867	44.922245
389.759308	1110.094604	10969.187500	5557.376953	45.108433
390.124298	1109.019165	11002.416992	5595.510742	45.348343
390.489227	1108.481445	11079.329102	5650.527832	45.553261
390.854126	1109.965576	11182.459961	5728.666504	45.854591
391.218964	1108.266235	11322.348633	5817.021484	46.100624
391.583771	1108.610352	11460.817383	5904.042969	46.322803
391.948578	1109.513672	11593.177734	5998.312500	46.632542
392.313354	1105.448730	11693.167969	6070.880859	46.898037
392.678040	1105.749878	11787.826172	6143.836426	47.163925
393.042694	1106.136963	11888.741211	6212.855957	47.360718
393.407349	1104.265869	12004.368164	6302.974609	47.694130
393.771942	1100.867676	12131.159180	6392.082520	47.969856
394.136505	1098.501709	12232.075195	6468.758301	48.234802
394.501007	1098.867310	12250.872070	6505.881348	48.484684
394.865479	1097.447754	12193.532227	6506.182617	48.744537
395.229919	1097.899536	12070.162109	6474.543945	49.002148
395.594360	1096.781006	11929.284180	6437.894043	49.306362
395.958710	1094.995850	11782.621094	6388.791016	49.532005
396.323029	1097.146606	11664.046875	6352.571777	49.734787
396.687286	1099.168457	11547.215820	6319.987305	49.969330
397.051544	1100.695435	11433.180664	6294.371582	50.265507
397.415771	1103.276489	11292.905273	6249.118652	50.500782
397.779938	1103.513062	11135.983398	6195.843262	50.758484
398.144043	1106.416626	10975.725586	6144.933105	51.052376
398.508148	1105.749878	10846.719727	6102.820313	51.299515
398.872192	1106.567261	10745.933594	6073.870605	51.531429
399.236237	1106.610229	10670.699219	6063.375000	51.826836
399.600189	1109.083740	10616.691406	6061.202637	52.085861
399.964111	1109.750488	10582.794922	6073.548340	52.399181
400.328003	1108.825684	10557.092773	6085.765137	52.675682
400.691925	1106.674805	10548.381836	6103.616699	52.924137
401.055695	1104.696167	10535.284180	6120.048828	53.181759
401.419495	1105.147583	10541.952148	6141.706543	53.371445
401.783234	1104.093750	10567.309570	6174.141113	53.576366
402.146942	1104.373413	10580.084961	6204.187500	53.819851
402.510620	1104.695923	10615.229492	6253.914063	54.142265
402.874237	1104.588379	10673.751953	6308.115234	54.378071
403.237823	1105.857544	10771.420898	6381.284668	54.579613
403.601379	1103.771240	10901.070313	6474.995605	54.823524
403.964874	1101.878418	11061.736328	6587.977051	55.082100
404.328369	1102.330078	11225.068359	6708.314453	55.380119
404.691772	1101.469727	11383.733398	6826.135742	55.675152
405.055176	1101.641846	11540.247070	6925.331055	55.789917
405.418549	1100.953613	11671.446289	7022.247070	56.017197
405.781860	1102.953857	11765.910156	7103.998535	56.279373
406.145142	1102.351685	11848.887695	7176.825195	56.524944
406.508362	1100.157837	11897.194336	7223.174805	56.710167
406.871552	1099.598755	11914.058594	7254.984863	56.918110
407.234741	1097.899536	11892.678711	7268.556641	57.163349
407.597870	1098.458740	11837.294922	7254.490234	57.324940
407.960938	1099.405029	11763.157227	7232.616699	57.514576
408.323975	1100.501953	11688.825195	7202.763672	57.631992
408.686981	1100.760132	11624.300781	7179.771484	57.765835
409.049957	1101.512817	11579.477539	7186.610840	58.075191
409.412903	1100.910645	11579.994141	7208.892578	58.287365
409.775787	1103.556152	11608.556641	7245.671875	58.468498
410.138611	1106.072510	11650.669922	7291.698730	58.661564
410.501434	1110.524658	11708.204102	7340.845215	58.789474
410.864227	1112.223755	11746.896484	7382.979492	58.965199
411.226929	1112.632446	11788.665039	7427.372070	59.148750
411.589630	1113.428223	11822.755859	7472.366699	59.377567
411.952271	1116.310425	11847.897461	7501.747070	59.501328
412.314911	1116.159790	11863.900391	7527.750488	59.655247
412.677490	1115.729614	11876.655273	7548.720215	59.781017
413.040009	1115.578979	11886.268555	7565.991699	59.888577
413.402496	1115.191895	11866.609375	7566.678223	60.005913
413.764984	1113.428223	11834.455078	7560.270020	60.132687
414.127380	1110.933472	11824.604492	7560.377930	60.198269
414.489777	1110.008667	11831.379883	7568.938965	60.243507
414.852112	1110.116089	11869.363281	7597.156738	60.292698
415.214386	1106.997559	11936.662109	7638.151855	60.308006
415.576660	1106.674805	12035.340820	7698.072266	60.312920
415.938904	1104.545532	12165.206055	7774.919922	60.307201
416.301086	1103.921753	12317.656250	7872.330078	60.358200
416.663208	1106.352051	12495.719727	7982.493652	60.373341
417.025299	1104.523926	12692.347656	8099.670410	60.366348
417.387390	1107.126465	12916.933594	8232.675781	60.335869
417.749420	1107.664185	13195.377930	8394.803711	60.285507
418.111389	1109.148193	13496.941406	8575.922852	60.275261
418.473328	1108.997559	13833.950195	8782.227539	60.300655
418.835266	1109.944092	14205.543945	9006.793945	60.301552
419.197144	1114.912354	14599.657227	9254.716797	60.363060
419.558960	1115.729614	15034.377930	9523.136719	60.403904
419.920746	1115.751099	15511.663086	9828.529297	60.522587
420.282471	1115.665039	16074.227539	10184.035156	60.623272
420.644226	1116.654541	16642.363281	10548.058594	60.747013
421.005920	1117.450317	17200.044922	10912.276367	60.903271
421.367523	1115.062988	17704.322266	11251.329102	61.101376
421.729126	1114.869263	18129.578125	11544.785156	61.299408
422.090668	1112.740112	18508.529297	11810.947266	61.498833
422.452179	1112.288330	18812.931641	12042.094727	61.748077
422.813660	1110.911865	19112.841797	12266.983398	61.971531
423.175110	1108.373901	19411.007813	12481.912109	62.141533
423.536469	1108.503052	19655.835938	12683.249023	62.406528
423.897858	1107.212646	19856.054688	12854.344727	62.655239
424.259155	1106.825317	19930.041016	12941.150391	62.870903
424.620453	1101.190308	19945.248047	12996.082031	63.122768
424.981689	1101.878418	19900.576172	13017.031250	63.382862
425.342865	1102.588257	19849.298828	13012.472656	63.530529
425.704041	1101.684937	19768.105469	13001.375000	63.749184
426.065186	1102.459106	19672.716797	12970.166016	63.907066
426.426239	1101.835449	19546.292969	12912.116211	64.031601
426.787262	1102.222656	19328.652344	12803.329102	64.198563
427.148254	1102.932251	19028.789063	12642.535156	64.374062
427.509216	1101.684692	18694.187500	12441.950195	64.460793
427.870178	1102.523560	18279.685547	12187.574219	64.533653
428.231049	1101.727905	17872.582031	11937.694336	64.611900
428.591858	1106.567261	17488.619141	11699.707031	64.663086
428.952698	1105.642456	17118.486328	11464.925781	64.693588
429.313446	1104.760620	16761.517578	11246.404297	64.774864
429.674164	1105.470337	16456.294922	11039.690430	64.714569
430.034851	1106.653442	16158.281250	10853.709961	64.757492
430.395477	1107.341553	15906.465820	10690.507813	64.754951
430.756104	1105.642456	15714.184570	10563.502930	64.741989
431.116699	1106.395142	15553.583984	10456.886719	64.721878
431.477203	1103.878784	15418.663086	10373.866211	64.758133
431.837646	1104.652954	15357.708984	10342.271484	64.811493
432.198090	1104.739136	15337.406250	10339.454102	64.883942
432.558502	1103.749634	15340.266602	10347.991211	64.933311
432.918884	1105.083130	15371.237305	10381.888672	65.026672
433.279205	1104.953979	15433.438477	10445.810547	65.190819
433.639465	1104.652954	15494.156250	10514.635742	65.394768
433.999756	1103.168823	15573.284180	10595.118164	65.596916
434.359924	1102.738770	15652.305664	10681.538086	65.835632
434.720093	1104.566895	15715.709961	10755.290039	66.050430
435.080200	1103.814087	15769.545898	10827.621094	66.302910
435.440277	1107.449097	15820.327148	10902.813477	66.576805
435.800354	1107.406128	15854.137695	10962.369141	66.828117
436.160370	1108.546021	15863.386719	11008.008789	67.092987
436.520325	1107.126465	15868.397461	11054.035156	67.385170
436.880249	1105.491821	15869.772461	11094.944336	67.659592
437.240112	1104.007690	15877.494141	11142.712891	67.950821
437.599976	1102.609741	15923.329102	11208.742188	68.189217
437.959808	1105.384277	15984.863281	11281.375977	68.389442
438.319519	1104.222778	16061.215820	11365.600586	68.605888
438.679260	1102.717285	16173.660156	11483.077148	68.876640
439.038940	1104.072144	16327.722656	11636.388672	69.183907
439.398590	1103.577515	16530.156250	11816.733398	69.446091
439.758179	1101.727905	16789.457031	12036.243164	69.701073
440.117767	1101.813965	17104.636719	12290.792969	69.918785
440.477295	1102.674316	17428.570313	12551.943359	70.129501
440.836792	1104.480957	17747.060547	12814.018555	70.358902
441.196198	1106.094116	18022.835938	13043.422852	70.565178
441.555603	1106.266113	18234.710938	13229.337891	70.777420
441.914978	1105.362793	18377.330078	13370.667969	71.012787
442.274323	1105.814575	18473.687500	13478.250000	71.237480
442.633575	1104.825195	18531.974609	13557.636719	71.456390
442.992859	1102.566772	18534.320313	13593.275391	71.654915
443.352051	1100.308350	18492.572266	13584.522461	71.780273
443.711182	1102.029053	18390.644531	13536.472656	71.922729
444.070313	1100.975098	18259.791016	13476.896484	72.125732
444.429382	1101.641968	18114.310547	13409.812500	72.347092
444.788452	1101.297729	18022.427734	13369.592773	72.502808
445.147430	1099.921265	18001.091797	13372.196289	72.611984
445.506409	1099.405151	18036.513672	13430.008789	72.802292
445.865295	1098.136108	18160.464844	13547.184570	72.962196
446.224182	1099.405029	18370.490234	13717.743164	73.060478
446.583038	1100.588013	18611.101563	13913.552734	73.172981
446.941833	1100.846069	18869.736328	14106.372070	73.192673
447.300598	1100.394409	19118.605469	14302.782227	73.272469
447.659302	1098.178955	19323.125000	14472.997070	73.387428
448.018005	1100.050171	19471.550781	14600.884766	73.487930
448.376648	1099.082397	19577.027344	14693.284180	73.569878
448.735229	1101.061157	19592.533203	14724.663086	73.675049
449.093781	1100.846191	19539.453125	14713.177734	73.825165
449.452301	1102.330200	19427.289063	14642.738281	73.890526
449.810791	1103.255005	19245.503906	14521.971680	73.963913
450.169220	1102.889404	18963.898438	14339.087891	74.106659
450.527618	1102.502197	18669.667969	14125.943359	74.135132
450.885956	1102.803223	18396.730469	13939.468750	74.226433
451.244263	1103.082886	18132.847656	13763.447266	74.342560
451.602539	1103.104492	17917.898438	13626.633789	74.479233
451.960785	1101.469849	17751.490234	13509.306641	74.521454
452.318970	1104.674683	17618.054688	13425.319336	74.610069
452.677124	1103.534668	17493.501953	13334.941406	74.627403
453.035248	1103.513184	17355.742188	13235.425781	74.647682
453.393311	1105.319824	17210.777344	13133.110352	74.681465
453.751312	1106.739380	17061.273438	13030.925781	74.738541
454.109314	1106.588745	16932.162109	12953.109375	74.856819
454.467285	1106.223145	16796.466797	12863.141602	74.931389
454.825195	1106.502686	16644.642578	12759.515625	74.996193
455.183044	1106.158569	16490.300781	12648.061523	75.024673
455.540894	1107.771729	16312.581055	12513.313477	75.012726
455.898651	1106.588745	16140.602539	12390.502930	75.055901
456.256378	1105.298340	15975.097656	12262.831055	75.034866
456.614105	1103.577637	15849.490234	12183.574219	75.139442
456.971771	1105.513306	15780.019531	12128.469727	75.116371
457.329407	1103.276489	15769.350586	12132.191406	75.200188
457.686981	1101.104126	15827.056641	12184.046875	75.261299
458.044525	1101.383667	15996.025391	12308.147461	75.240234
458.402008	1101.469849	16249.238281	12515.097656	75.348579
458.759460	1101.899902	16633.072266	12828.815430	75.505676
459.116913	1103.900269	17143.347656	13223.058594	75.558456
459.474274	1101.964600	17748.671875	13682.383789	75.573021
459.831635	1102.674316	18318.248047	14113.727539	75.577225
460.188904	1100.114868	18817.556641	14500.397461	75.633278
460.546173	1100.200928	19216.060547	14808.521484	75.670273
460.903381	1099.620117	19511.148438	15047.347656	75.755409
461.260559	1098.781372	19718.873047	15216.681641	75.820786
461.617706	1098.738281	19844.222656	15314.329102	75.834747
461.974762	1099.835205	19816.476563	15299.594727	75.867035
462.331848	1099.899658	19682.394531	15201.346680	75.885651
462.688843	1098.222046	19383.757813	14965.188477	75.835716
463.045837	1097.189575	18940.044922	14640.116211	75.901115
463.402740	1099.619995	18391.591797	14244.324219	76.016220
463.759613	1100.437378	17865.740234	13858.749023	76.099503
464.116486	1100.738403	17398.607422	13513.522461	76.162010
464.473267	1101.319092	17029.548828	13234.003906	76.170952
464.830048	1102.480591	16737.945313	13021.312500	76.229469
465.186737	1104.695801	16506.689453	12849.787109	76.256958
465.543457	1105.470215	16337.313477	12721.769531	76.263245
465.900085	1103.663574	16282.833984	12683.227539	76.285889
466.256683	1104.244263	16292.621094	12697.444336	76.329422
466.613251	1104.480957	16357.274414	12756.096680	76.390045
466.969757	1106.029419	16439.476563	12815.930664	76.368355
467.326233	1105.319824	16510.820313	12870.217773	76.368172
467.682678	1107.234009	16560.052734	12915.018555	76.411850
468.039093	1108.546021	16580.548828	12935.837891	76.443184
468.395416	1108.201904	16570.224609	12938.957031	76.514923
468.751740	1106.889893	16553.146484	12931.731445	76.554741
469.108032	1106.975830	16523.464844	12913.556641	76.584106
469.464233	1107.255493	16484.578125	12887.360352	76.606995
469.820435	1108.674927	16407.945313	12825.761719	76.585922
470.176575	1110.202026	16285.781250	12723.856445	76.528572
470.532715	1111.686035	16129.696289	12614.917969	76.596252
470.888763	1112.116333	15987.184570	12522.131836	76.705635
471.244751	1113.492798	15888.291016	12459.028320	76.789780
471.600769	1112.610962	15828.303711	12425.217773	76.874443
471.956696	1113.837036	15821.293945	12429.561523	76.938690
472.312592	1114.503784	15883.688477	12485.008789	76.988037
472.668457	1114.460815	15968.472656	12569.599609	77.118149
473.024292	1114.611206	16080.165039	12669.096680	77.207199
473.380035	1113.836914	16152.497070	12748.871094	77.367493
473.735779	1113.428223	16223.559570	12822.771484	77.493332
474.091492	1111.406372	16299.697266	12914.740234	77.713379
474.447113	1108.481323	16406.613281	13006.880859	77.776810
474.802765	1107.470581	16513.466797	13101.214844	77.851143
475.158295	1106.330566	16627.951172	13205.034180	77.947418
475.513824	1104.351929	16748.632813	13314.488281	78.048561
475.869324	1104.115356	16876.734375	13439.450195	78.207268
476.224762	1104.416382	16990.210938	13548.324219	78.333557
476.580170	1104.351929	17126.080078	13660.725586	78.370911
476.935516	1103.749756	17276.789063	13793.709961	78.463669
477.290863	1103.169067	17498.664063	13988.746094	78.592186
477.646118	1103.061401	17727.509766	14194.233398	78.746498
478.001373	1104.395020	17985.345703	14408.474609	78.811203
478.356537	1106.825317	18247.376953	14633.383789	78.915543
478.711700	1108.008301	18524.294922	14864.702148	78.987518
479.066833	1107.535034	18798.650391	15095.978516	79.070442
479.421875	1108.481445	19090.105469	15344.268555	79.168526
479.776917	1107.083496	19404.767578	15609.677734	79.259178
480.131897	1108.201904	19747.414063	15901.412109	79.366066
480.486847	1108.481445	20138.667969	16249.068359	79.560890
480.841766	1107.255493	20624.296875	16653.353516	79.653969
481.196594	1108.395508	21200.820313	17126.960938	79.724396
481.551453	1107.169556	21940.115234	17747.919922	79.877090
481.906219	1105.685425	22896.210938	18566.513672	80.130371
482.260986	1107.363159	24232.376953	19699.148438	80.396858
482.615662	1107.449097	26140.806641	21313.478516	80.716415
482.970306	1106.868408	28737.750000	23545.238281	81.207581
483.324951	1106.201660	31746.945313	26250.044922	82.060158
483.679504	1106.545776	34837.628906	29078.699219	82.926941
484.034027	1103.448608	37693.785156	31657.943359	83.504272
484.388519	1102.502197	40153.171875	33823.527344	83.791206
484.742981	1103.728149	42112.316406	35540.703125	83.975029
485.097351	1101.469849	43613.167969	36885.281250	84.174034
485.451721	1103.340942	44699.816406	37871.144531	84.336639
485.806030	1104.136841	45443.222656	38572.003906	84.503021
486.160309	1102.502075	45882.390625	39035.480469	84.709854
486.514557	1100.351440	45884.199219	39155.816406	84.975868
486.868744	1102.717285	45417.625000	38840.855469	85.159012
487.222931	1103.405518	44580.058594	38118.312500	85.137436
487.577026	1103.082886	43572.601563	37207.062500	85.011513
487.931122	1105.513306	42634.746094	36404.941406	84.998993
488.285126	1107.943726	41781.023438	35748.667969	85.168678
488.639099	1107.922241	41036.996094	35232.023438	85.461792
488.993042	1107.384644	40419.503906	34802.273438	85.711197
489.346954	1105.578003	39883.546875	34446.527344	85.979103
489.700836	1105.233765	39383.351563	34113.128906	86.231758
490.054626	1106.287598	38821.929688	33732.609375	86.506081
490.408417	1107.750122	38300.144531	33387.597656	86.791527
490.762146	1105.900513	37821.589844	33102.121094	87.145912
491.115814	1104.265869	37457.500000	32913.625000	87.500771
491.469513	1104.523926	37116.941406	32759.392578	87.899872
491.823090	1103.018433	36680.972656	32498.261719	88.243538
492.176666	1101.512817	36209.734375	32193.085938	88.559235
492.530182	1100.394409	35745.246094	31889.542969	88.870773
492.883698	1102.416138	35244.714844	31548.148438	89.173065
493.237091	1102.975342	34703.437500	31169.345703	89.482018
493.590515	1101.813965	34062.304688	30709.158203	89.826767
493.943878	1099.706177	33276.421875	30094.675781	90.111649
494.297150	1099.125488	32215.968750	29226.849609	90.393890
494.650452	1101.039673	30864.232422	28092.835938	90.688515
495.003662	1102.029053	29264.033203	26726.257813	90.988655
495.356873	1102.373169	27692.054688	25355.806641	91.213707
495.710022	1102.996948	26369.289063	24242.701172	91.583298
496.063110	1103.642212	25355.443359	23411.716797	91.985229
496.416168	1103.147461	24639.269531	22838.789063	92.350136
496.769165	1104.954224	24163.982422	22474.957031	92.675209
497.122162	1106.739380	23866.482422	22275.320313	93.008873
497.475098	1108.546021	23682.890625	22154.507813	93.229561
497.828003	1110.116089	23611.398438	22156.466797	93.534004
498.180847	1113.492676	23576.253906	22178.060547	93.775505
498.533661	1111.470947	23520.783203	22181.091797	94.021721
498.886444	1110.008545	23454.603516	22170.833984	94.254677
499.239136	1108.137207	23350.849609	22117.730469	94.456078
499.591827	1108.309448	23151.341797	21969.087891	94.636612
499.944427	1106.911377	22863.435547	21728.283203	94.782471
500.297089	1107.255493	22542.361328	21458.722656	94.944565
500.649628	1106.051025	22189.027344	21171.248047	95.172508
501.002136	1102.846436	21837.843750	20873.468750	95.349045
501.354584	1103.147461	21511.783203	20608.380859	95.573433
501.707001	1102.201172	21173.849609	20323.335938	95.762611
502.059387	1099.383545	20893.191406	20098.169922	95.983482
502.411682	1101.448364	20655.591797	19893.886719	96.104637
502.764038	1102.609619	20481.121094	19745.093750	96.201836
503.116302	1102.975464	20345.273438	19629.273438	96.279030
503.468475	1101.942871	20269.974609	19576.425781	96.381744
503.820709	1102.222534	20235.583984	19573.759766	96.540993
504.172852	1102.007446	20195.921875	19555.414063	96.645485
504.524902	1101.706421	20187.039063	19560.705078	96.718246
504.876953	1104.502441	20195.298828	19571.414063	96.732010
505.228912	1104.523926	20207.902344	19592.169922	96.776840
505.580872	1104.846680	20235.173828	19611.439453	96.739555
505.932770	1104.179810	20222.357422	19596.664063	96.727234
506.284698	1105.083252	20206.095703	19586.080078	96.754013
506.636505	1105.986572	20195.986328	19582.662109	96.787193
506.988342	1107.750244	20178.437500	19580.748047	96.865929
507.340088	1109.298828	20172.994141	19576.404297	96.870544
507.691772	1108.632080	20186.783203	19571.283203	96.773796
508.043396	1108.374023	20231.798828	19614.257813	96.770752
508.395050	1108.309448	20304.562500	19679.019531	96.741325
508.746582	1108.567505	20410.357422	19767.935547	96.671700
509.098114	1109.277222	20540.654297	19886.982422	96.636002
509.449646	1110.589355	20681.705078	20011.255859	96.574295
509.801086	1110.718262	20872.544922	20170.005859	96.444969
510.152557	1106.911499	21057.253906	20331.638672	96.362892
510.503906	1106.889893	21230.759766	20484.281250	96.290581
510.855194	1106.502808	21417.083984	20633.181641	96.140427
511.206482	1105.750000	21591.601563	20780.597656	96.041153
511.557709	1105.427368	21770.718750	20941.005859	95.984993
511.908844	1106.352295	21947.601563	21077.902344	95.827026
512.260010	1105.728516	22066.992188	21168.515625	95.713631
512.611206	1104.265869	22153.345703	21233.943359	95.632103
512.962219	1102.201050	22215.742188	21246.460938	95.409195
513.313232	1101.190308	22258.716797	21253.882813	95.250702
513.664246	1102.717285	22252.607422	21218.306641	95.109665
514.015137	1105.061646	22230.433594	21153.460938	94.901993
514.366028	1104.287354	22204.279297	21079.470703	94.669151
514.716919	1105.083252	22142.960938	20986.451172	94.502724
515.067688	1104.287354	22058.132813	20861.705078	94.290176
515.418396	1105.233643	21980.056641	20737.664063	94.048370
515.769104	1106.631714	21921.296875	20630.361328	93.797951
516.119812	1106.782227	21914.371094	20570.761719	93.542694
516.470459	1105.771362	21984.335938	20574.310547	93.246544
516.821106	1106.416504	22125.904297	20658.384766	93.018288
517.171631	1105.448730	22377.761719	20845.916016	92.798874
517.522095	1105.405762	22750.236328	21119.263672	92.464836
517.872559	1104.738892	23238.060547	21521.267578	92.243401
518.222961	1104.244263	23769.632813	21944.203125	91.946182
518.573364	1101.383789	24282.062500	22358.189453	91.700523
518.923645	1102.975464	24744.054688	22722.257813	91.447952
519.273987	1103.943237	25128.748047	23012.205078	91.190178
519.624207	1101.577393	25405.705078	23199.841797	90.923912
519.974487	1101.835449	25611.494141	23334.419922	90.709480
520.324646	1101.706543	25695.806641	23351.904297	90.469658
520.674744	1100.480469	25692.968750	23285.099609	90.208923
521.024780	1102.523682	25550.867188	23090.150391	89.935036
521.374878	1101.641846	25293.994141	22809.943359	89.732079
521.724792	1101.792480	24944.507813	22421.314453	89.417343
522.074707	1101.577271	24560.783203	22016.941406	89.156319
522.424744	1103.039917	24208.351563	21630.742188	88.844086
522.774536	1102.394653	23953.613281	21326.189453	88.502037
523.124329	1103.039917	23763.244141	21082.654297	88.170494
523.474182	1103.340942	23688.095703	20954.123047	87.894608
523.823914	1103.556030	23738.960938	20920.013672	87.546295
524.173523	1104.975464	23934.019531	21020.412109	87.237282
524.523132	1105.706909	24293.826172	21257.064453	86.903801
524.872803	1105.491821	24804.900391	21615.669922	86.542992
525.222290	1106.631714	25473.820313	22119.408203	86.233902
525.571777	1105.964966	26219.763672	22686.337891	85.930344
525.921326	1106.631714	27019.648438	23296.369141	85.631622
526.270752	1107.104980	27872.054688	23947.117188	85.335533
526.620178	1107.406006	28809.162109	24659.570313	85.020477
526.969482	1107.578247	29981.929688	25566.994141	84.709839
527.318787	1107.148071	31455.748047	26729.011719	84.425194
527.668030	1106.975952	33370.007813	28267.113281	84.183464
528.017212	1107.707153	35566.496094	30060.931641	84.022758
528.366394	1109.341675	37748.785156	31890.814453	84.011841
528.715515	1108.373901	39693.691406	33478.277344	83.891769
529.064636	1106.459595	41203.746094	34646.875000	83.647591
529.413635	1107.664063	42295.300781	35458.867188	83.401733
529.762695	1108.395386	43001.128906	35939.828125	83.144333
530.111633	1106.954224	43399.035156	36163.253906	82.890930
530.460510	1106.889771	43443.382813	36098.578125	82.651360
530.809387	1104.093750	43059.722656	35687.519531	82.428574
531.158142	1105.986450	42228.503906	34885.527344	82.143661
531.506958	1105.577881	40857.835938	33628.082031	81.812973
531.855652	1105.212280	39192.707031	32096.386719	81.368370
532.204407	1104.760620	37589.753906	30558.882813	80.729424
532.552979	1102.523682	36340.593750	29353.056641	80.170486
532.901611	1103.921753	35470.761719	28517.318359	79.766998
533.250183	1102.480591	34922.453125	27948.863281	79.380264
533.598755	1100.609497	34514.773438	27507.257813	79.028305
533.947205	1102.308594	34183.910156	27122.867188	78.655678
534.295593	1101.770996	33907.839844	26812.914063	78.373123
534.643982	1102.114990	33682.816406	26543.158203	78.086235
534.992249	1107.513550	33476.277344	26291.560547	77.803551
535.340576	1110.245117	33294.105469	26051.763672	77.496979
535.688843	1109.234253	33078.164063	25787.560547	77.194725
536.037048	1109.771973	32712.574219	25400.482422	76.862518
536.385315	1112.890625	32123.939453	24823.185547	76.457573
536.733398	1109.169800	31376.382813	24120.150391	76.026100
537.081421	1110.718262	30556.279297	23372.185547	75.602119
537.429443	1110.739746	29809.585938	22711.242188	75.266098
537.777466	1111.557129	29146.726563	22134.935547	74.989304
538.125427	1112.395874	28592.144531	21630.486328	74.666222
538.473267	1112.288330	28157.917969	21216.564453	74.334656
538.821167	1104.007813	27804.673828	20877.404297	74.055817
539.169006	1101.491333	27504.570313	20580.701172	73.776283
539.516846	1101.491455	27271.681641	20320.044922	73.436813
539.864502	1099.620117	27216.148438	20191.468750	73.102554
540.212219	1097.641357	27426.560547	20276.339844	72.842712
540.559875	1099.232910	28027.324219	20635.330078	72.549133
540.907410	1097.469238	28949.179688	21212.517578	72.221947
541.254944	1097.340210	29996.533203	21867.375000	71.870636
541.602478	1096.157349	30989.560547	22496.078125	71.587433
541.949951	1095.877686	31891.351563	23055.287109	71.307266
542.297363	1096.522949	32669.382813	23529.429688	71.051231
542.644714	1097.899536	33349.683594	23932.707031	70.801689
542.992126	1098.265137	33818.625000	24174.607422	70.525940
543.339355	1097.146606	34032.734375	24243.001953	70.276131
543.686646	1096.716553	33859.851563	24041.279297	70.031647
544.033813	1097.447754	33294.101563	23547.087891	69.726624
544.380920	1099.942871	32311.314453	22758.259766	69.392387
544.728027	1102.717285	31028.962891	21785.451172	69.112358
545.075134	1101.878540	29717.748047	20793.156250	68.812439
545.422180	1101.319214	28556.460938	19887.130859	68.423660
545.769165	1101.168701	27565.716797	19111.228516	68.053535
546.116150	1100.738403	26715.267578	18434.691406	67.672348
546.463013	1100.781494	25948.162109	17822.335938	67.297050
546.809875	1100.437378	25327.935547	17326.769531	66.974854
547.156677	1101.620361	24759.798828	16875.554688	66.674339
547.503418	1100.050293	24299.312500	16501.917969	66.389473
547.850098	1100.781616	23867.107422	16150.347656	66.104500
548.196777	1100.179321	23446.021484	15824.047852	65.890862
548.543396	1096.974609	23044.662109	15493.683594	65.595566
548.890015	1101.319214	22595.550781	15131.122070	65.272408
549.236633	1102.760254	22087.208984	14752.496094	65.046913
549.583069	1101.985962	21522.902344	14338.485352	64.818344
549.929504	1102.416138	20921.300781	13905.981445	64.602852
550.275879	1100.760132	20313.160156	13469.840820	64.380714
550.622253	1100.416016	19706.720703	13026.688477	64.098015
550.968567	1100.329956	19190.935547	12642.191406	63.800304
551.314819	1102.996948	18745.742188	12307.290039	63.506516
551.661072	1103.319580	18430.111328	12058.204102	63.225121
552.007263	1102.136719	18231.054688	11872.524414	62.878387
552.353394	1105.448975	18094.607422	11741.132813	62.602768
552.699524	1103.706665	18014.039063	11647.207031	62.349457
553.045593	1101.190308	17973.261719	11574.207031	62.073090
553.391602	1101.405396	17957.236328	11516.157227	61.787239
553.737549	1102.652832	17924.416016	11448.622070	61.503471
554.083435	1104.545410	17887.830078	11373.409180	61.185062
554.429321	1106.481201	17838.468750	11299.808594	60.921196
554.775146	1105.792847	17752.048828	11209.303711	60.695396
555.120972	1104.524048	17666.900391	11104.602539	60.378281
555.466675	1104.437866	17512.492188	10975.295898	60.158615
555.812439	1107.040405	17331.201172	10828.202148	59.917809
556.158081	1106.223145	17119.562500	10659.579102	59.658733
556.503662	1108.008301	16909.386719	10488.137695	59.362724
556.849182	1109.427734	16702.757813	10325.665039	59.103714
557.194702	1110.632202	16524.908203	10173.926758	58.798058
557.540161	1110.288086	16370.159180	10037.824219	58.503353
557.885620	1112.653931	16227.881836	9913.206055	58.223083
558.231018	1111.643066	16102.038086	9799.988281	57.959419
558.576355	1110.567627	15996.025391	9702.900391	57.723000
558.921692	1110.524658	15889.324219	9610.093750	57.511906
559.266968	1109.255737	15814.516602	9521.825195	57.207890
559.612183	1106.115601	15738.808594	9446.718750	56.999783
559.957336	1104.007813	15700.633789	9384.883789	56.731438
560.302429	1100.179321	15672.478516	9338.147461	56.531696
560.647522	1099.405151	15656.972656	9300.378906	56.334782
560.992554	1098.781372	15642.175781	9267.686523	56.169178
561.337524	1099.985840	15644.003906	9244.286133	55.997597
561.682434	1100.910645	15641.809570	9223.444336	55.859917
562.027344	1101.319214	15641.678711	9192.924805	55.649281
562.372253	1103.921753	15653.250000	9164.125000	55.399143
562.717102	1105.405762	15654.325195	9144.552734	55.255970
563.061829	1107.384521	15657.531250	9121.066406	55.076294
563.406494	1109.642822	15653.788086	9088.007813	54.856197
563.751160	1112.245239	15640.667969	9059.896484	54.704159
564.095825	1114.138062	15643.056641	9040.238281	54.553955
564.440369	1115.557495	15647.035156	9011.676758	54.338032
564.784973	1115.794067	15681.599609	9002.792969	54.147358
565.129456	1114.546753	15765.953125	9024.322266	53.986458
565.473877	1109.212646	15897.497070	9070.822266	53.837276
565.818298	1108.911743	16063.000000	9140.444336	53.707943
566.162659	1109.858154	16232.483398	9215.334961	53.598343
566.507019	1106.674683	16407.216797	9280.805664	53.423798
566.851196	1103.749634	16544.824219	9342.512695	53.356152
567.195435	1101.319214	16677.636719	9388.281250	53.202316
567.539612	1098.845825	16770.142578	9411.058594	53.041000
567.883789	1098.437378	16815.396484	9417.124023	52.928093
568.227844	1098.394287	16842.580078	9420.586914	52.858829
568.571960	1097.835083	16832.666016	9403.896484	52.787739
568.915955	1096.867065	16774.658203	9348.513672	52.632710
569.259888	1097.835083	16687.314453	9275.365234	52.455441
569.603821	1097.146729	16574.826172	9194.860352	52.318657
569.947632	1096.200439	16458.447266	9115.924805	52.204113
570.291504	1100.308472	16368.566406	9053.422852	52.089207
570.635193	1103.319458	16348.822266	9009.030273	51.856018
570.979004	1106.567261	16355.253906	9008.664063	51.821491
571.322632	1108.008179	16430.789063	9042.839844	51.784538
571.666321	1110.029907	16548.783203	9089.448242	51.684345
572.009949	1110.116089	16681.423828	9135.969727	51.542580
572.353455	1108.631958	16804.339844	9181.889648	51.436085
572.696960	1108.352417	16900.718750	9215.851563	51.338089
573.040405	1110.395630	16978.382813	9244.006836	51.257992
573.383850	1111.169922	17033.099609	9262.030273	51.192665
573.727173	1111.148438	17071.361328	9270.116211	51.120670
574.070557	1112.223755	17088.847656	9266.309570	51.037601
574.413879	1111.428101	17074.267578	9263.363281	51.068199
574.757019	1108.868530	17051.748047	9230.584961	50.942593
575.100281	1107.255371	16966.144531	9174.168945	50.866829
575.443420	1104.072266	16850.496094	9099.556641	50.776508
575.786499	1101.082642	16706.648438	9012.191406	50.694149
576.129517	1102.502197	16550.652344	8922.610352	50.621647
576.472534	1103.147461	16393.923828	8838.858398	50.590702
576.815491	1100.071777	16227.774414	8746.481445	50.545742
577.158447	1101.813965	16047.149414	8642.941406	50.458065
577.501343	1102.308716	15860.006836	8535.273438	50.366695
577.844116	1100.007202	15642.734375	8414.978516	50.299858
578.187012	1096.307861	15400.768555	8271.842773	50.162918
578.529724	1095.512085	15125.292969	8126.577637	50.115288
578.872375	1097.189575	14852.269531	7982.773926	50.058483
579.215027	1099.619995	14596.324219	7836.088867	49.911953
579.557617	1101.663330	14341.688477	7705.040527	49.874352
579.900146	1100.996582	14109.167969	7576.444824	49.779850
580.242676	1100.286743	13887.053711	7456.471680	49.709087
580.585144	1102.416138	13688.233398	7348.243652	49.625919
580.927612	1097.211182	13509.136719	7248.897949	49.562710
581.269958	1098.265137	13349.159180	7158.564453	49.468220
581.612305	1096.544434	13215.940430	7086.512207	49.424637
581.954590	1099.426636	13088.009766	7018.847168	49.375481
582.296814	1099.620117	12997.846680	6966.454590	49.308479
582.639038	1099.598633	12918.224609	6915.651855	49.210907
582.981140	1100.867676	12828.277344	6875.066895	49.236782
583.323242	1100.093384	12760.247070	6827.210938	49.117001
583.665283	1101.598755	12687.206055	6783.958008	49.046711
584.007324	1102.459106	12630.016602	6749.201660	48.984726
584.349304	1101.469849	12565.449219	6711.777832	48.938576
584.691284	1104.825073	12509.077148	6677.429688	48.864269
585.033142	1103.749634	12446.015625	6647.188965	48.874180
585.374939	1105.620972	12396.288086	6620.647949	48.845890
585.716736	1106.287598	12363.918945	6606.065430	48.853775
586.058411	1106.631714	12314.062500	6578.147949	48.820431
586.400085	1105.169312	12271.843750	6557.844238	48.829887
586.741760	1102.480713	12244.743164	6535.195801	48.757736
587.083374	1103.771240	12229.579102	6534.809570	48.814777
587.424988	1101.233276	12208.243164	6527.389160	48.853436
587.766541	1101.211792	12204.802734	6527.390137	48.868679
588.107971	1101.792480	12225.365234	6534.271973	48.837543
588.449341	1100.975098	12243.366211	6549.284668	48.897133
588.790710	1099.878174	12287.006836	6570.492188	48.900967
589.132080	1098.135986	12324.086914	6583.504395	48.863281
589.473267	1096.931519	12371.899414	6606.281250	48.863552
589.814514	1098.501831	12421.753906	6625.939453	48.814930
590.155762	1099.361938	12476.449219	6639.359863	48.694347
590.496948	1099.598755	12504.647461	6653.705078	48.698666
590.838013	1098.372803	12512.971680	6653.167480	48.663952
591.179077	1100.200928	12532.156250	6655.877930	48.597782
591.520081	1099.061035	12520.821289	6644.844238	48.554543
591.861023	1101.039673	12486.795898	6629.101074	48.552433
592.201965	1101.813965	12456.897461	6611.980957	48.525990
592.542847	1102.975464	12411.947266	6587.095703	48.493534
592.883606	1104.287231	12367.211914	6562.706055	48.463600
593.224365	1104.803589	12327.699219	6537.884766	48.410690
593.565125	1104.201294	12297.759766	6527.066895	48.446308
593.905823	1104.997192	12292.082031	6526.873047	48.465492
594.246521	1104.825073	12300.319336	6531.412109	48.471169
594.587097	1105.405762	12337.787109	6544.896484	48.426872
594.927612	1103.663574	12377.016602	6564.834473	48.443180
595.268127	1107.470581	12465.393555	6605.033203	48.402885
595.608582	1104.523926	12591.065430	6660.523438	48.369648
595.948975	1104.480957	12754.353516	6736.167480	48.341183
596.289307	1102.609863	12963.261719	6831.470215	48.301392
596.629700	1103.685181	13186.622070	6938.923828	48.293217
596.969971	1103.728271	13371.160156	7030.290527	48.311356
597.310242	1100.889160	13526.062500	7104.578613	48.318756
597.650391	1100.157837	13605.190430	7139.013672	48.291405
597.990540	1099.878174	13650.722656	7151.036133	48.213154
598.330627	1100.802979	13634.741211	7143.444824	48.210239
598.670654	1102.459106	13597.016602	7121.506348	48.173351
599.010620	1100.781494	13495.285156	7065.154785	48.121113
599.350525	1102.394653	13339.931641	6988.048828	48.095089
599.690491	1102.889282	13141.822266	6885.648438	48.033821
600.030334	1104.631348	12888.436523	6754.815430	47.948727
600.370178	1103.706665	12608.874023	6614.152832	47.895405
600.710022	1103.340942	12353.983398	6477.469238	47.767303
601.049683	1105.448853	12123.308594	6353.325195	47.630634
601.389343	1106.179932	11952.103516	6270.604980	47.616276
601.728943	1108.804077	11825.530273	6211.758301	47.616722
602.068542	1109.126709	11770.749023	6182.787598	47.588078
602.408081	1109.599854	11772.899414	6178.787598	47.538639
602.747498	1109.664429	11851.620117	6212.727051	47.505898
603.087036	1111.686157	11982.431641	6271.637207	47.466400
603.426453	1112.976685	12153.119141	6348.270508	47.420528
603.765869	1110.202148	12362.887695	6450.626953	47.459114
604.105103	1110.524658	12622.231445	6570.383301	47.428745
604.444336	1110.911987	12888.199219	6698.701172	47.445469
604.783569	1111.041016	13144.318359	6820.070801	47.443680
605.122681	1111.213013	13344.558594	6914.404785	47.437489
605.461792	1109.836426	13510.168945	6989.489258	47.415287
605.800842	1108.546021	13610.160156	7024.827637	47.324142
606.139954	1107.320068	13633.516602	7034.527832	47.318497
606.478943	1104.997192	13588.285156	7011.922363	47.318665
606.817932	1103.018433	13471.905273	6959.163574	47.345772
607.156799	1099.942871	13316.102539	6882.122070	47.332214
607.495605	1102.222656	13124.227539	6785.335449	47.272587
607.834412	1102.373169	12890.758789	6670.310547	47.232399
608.173157	1102.824829	12666.816406	6563.372070	47.220264
608.511841	1104.631470	12488.428711	6480.179688	47.221050
608.850464	1101.598877	12393.342773	6427.979492	47.170578
609.189148	1100.867676	12331.291016	6395.695801	47.147179
609.527710	1102.373169	12310.579102	6387.781250	47.156593
609.866211	1103.620605	12299.610352	6383.134766	47.155403
610.204712	1106.588745	12302.170898	6382.166992	47.121964
610.543091	1107.470581	12317.785156	6379.865723	47.031643
610.881409	1108.008301	12304.255859	6374.123047	47.034637
611.219788	1108.588989	12272.855469	6360.164063	47.039143
611.558044	1109.341797	12214.374023	6336.226074	47.067711
611.896301	1111.298950	12105.306641	6281.875488	47.030861
612.234436	1111.277588	11950.253906	6206.748047	47.010624
612.572693	1114.869385	11745.735352	6106.434570	46.953514
612.910767	1116.761963	11511.339844	6000.484863	46.983364
613.248840	1116.267456	11275.934570	5890.234863	46.989407
613.586792	1117.020264	11057.434570	5784.974609	46.959354
613.924805	1115.708252	10842.978516	5681.757813	46.940708
614.262695	1114.482300	10645.383789	5591.466797	46.973358
614.600525	1114.396240	10479.063477	5512.854980	46.968662
614.938293	1115.407104	10334.011719	5446.288086	46.979790
615.276123	1115.105957	10216.600586	5383.118164	46.893532
615.613892	1112.697144	10119.468750	5338.747070	46.920807
615.951538	1112.869263	10035.264648	5297.236816	46.897358
616.289185	1111.191528	9964.289063	5265.447754	46.924324
616.626770	1109.664429	9918.842773	5233.422363	46.812057
616.964294	1106.266113	9871.631836	5213.376953	46.856129
617.301819	1105.298218	9836.186523	5193.159180	46.820675
617.639221	1104.244385	9811.043945	5185.416016	46.873383
617.976624	1103.104370	9794.525391	5178.103516	46.885303
618.313965	1104.717651	9778.867188	5173.264160	46.904270
618.651306	1103.104370	9769.812500	5165.370605	46.872078
618.988525	1100.910645	9749.508789	5162.703613	46.964760
619.325684	1100.523560	9738.023438	5156.380859	46.956383
619.662964	1097.469360	9723.526367	5146.379395	46.938137
620.000000	1097.878052	9699.093750	5140.400391	46.999432
620.337097	1097.490845	9680.337891	5128.333984	46.963943
620.674133	1099.383423	9650.034180	5113.105957	46.940556
621.011047	1099.835083	9618.074219	5099.599609	46.955299
621.347961	1100.329956	9586.823242	5083.446289	46.934772
621.684875	1100.802979	9554.108398	5066.777832	46.916260
622.021729	1100.179321	9526.449219	5048.732422	46.860039
622.358521	1098.867310	9485.691406	5031.698730	46.892979
622.695313	1100.781494	9469.496094	5020.836914	46.841785
623.031982	1102.480591	9450.352539	5005.932617	46.759846
623.368652	1102.437622	9430.759766	4999.587402	46.793938
623.705261	1100.351440	9426.780273	4997.394043	46.803288
624.041748	1101.792480	9415.875977	4995.995605	46.838631
624.378296	1102.265625	9427.769531	4998.060059	46.793499
624.714722	1100.846191	9451.643555	5007.673828	46.783890
625.051147	1101.620361	9482.874023	5021.030273	46.764004
625.387512	1103.104492	9537.332031	5046.796875	46.758194
625.723877	1101.104248	9609.727539	5080.952637	46.774296
626.060120	1104.373535	9705.783203	5125.473145	46.749306
626.396301	1103.405518	9810.548828	5172.038574	46.727528
626.732483	1102.480713	9923.336914	5227.593262	46.765438
627.068604	1105.599365	10026.339844	5275.234375	46.740906
627.404724	1107.578125	10120.566406	5311.109863	46.638603
627.740662	1109.019043	10197.843750	5346.791016	46.626186
628.076721	1108.653442	10251.227539	5368.384766	46.592255
628.412720	1110.137573	10279.768555	5376.838379	46.530781
628.748596	1111.277466	10278.176758	5380.279297	46.569748
629.084473	1110.180542	10255.765625	5365.481445	46.528469
629.420227	1110.997803	10199.952148	5345.221191	46.586479
629.755981	1109.148071	10126.933594	5304.119141	46.518864
630.091675	1110.825684	10019.027344	5256.436523	46.537014
630.427307	1112.051758	9896.172852	5199.182129	46.528622
630.762939	1109.857910	9780.782227	5142.121582	46.503277
631.098450	1109.857910	9658.659180	5088.373047	46.538868
631.434021	1108.610474	9552.324219	5040.625000	46.567360
631.769470	1110.288208	9450.181641	4996.447266	46.597229
632.104980	1108.868652	9358.600586	4960.679199	46.690128
632.440308	1109.019165	9287.387695	4924.180176	46.649414
632.775635	1110.460083	9221.637695	4897.660156	46.691124
633.110901	1110.718262	9172.383789	4871.570801	46.651062
633.446106	1108.803955	9141.413086	4858.923828	46.686199
633.781250	1106.395020	9119.647461	4845.159180	46.657261
634.116394	1104.351685	9106.871094	4840.319824	46.684898
634.451538	1103.964722	9088.071289	4835.631348	46.738686
634.786560	1104.889526	9066.843750	4827.909668	46.760128
635.121582	1104.158325	9036.861328	4815.843750	46.789669
635.456543	1102.867920	9013.956055	4804.466309	46.790005
635.791443	1103.405518	8978.316406	4786.636230	46.771713
636.126221	1102.115112	8944.291016	4765.386230	46.712433
636.461060	1101.082520	8894.779297	4739.512207	46.684261
636.795776	1102.437622	8839.051758	4709.099609	46.618095
637.130493	1103.986206	8763.537109	4674.858887	46.619869
637.465210	1104.932495	8679.355469	4642.983887	46.710506
637.799805	1104.201294	8598.743164	4602.957520	46.684059
638.134399	1105.126099	8515.613281	4556.284668	46.571278
638.468933	1104.739136	8442.809570	4520.645996	46.550476
638.803345	1105.233765	8369.079102	4483.071777	46.502064
639.137756	1106.180176	8300.727539	4449.798828	46.474342
639.472168	1108.158936	8234.504883	4421.386230	46.492653
639.806519	1108.588989	8162.990234	4392.394043	46.549736
640.140747	1109.148193	8101.584473	4365.014160	46.562683
640.474976	1109.277222	8037.254395	4337.505371	46.596981
640.809204	1111.836792	7979.053223	4310.985352	46.585812
641.143372	1110.374146	7928.143555	4282.293457	46.524300
641.477478	1114.718750	7877.126465	4257.667480	46.476772
641.811462	1117.127686	7829.335938	4239.320801	46.515141
642.145447	1116.697510	7787.459473	4218.393555	46.496880
642.479370	1115.751099	7747.927734	4200.283203	46.508595
642.813293	1114.740356	7702.352051	4177.291016	46.489544
643.147095	1111.320435	7667.423340	4159.203125	46.489246
643.480957	1110.481567	7625.482422	4142.620605	46.540886
643.814758	1107.793091	7583.713867	4125.500000	46.598888
644.148438	1106.223145	7555.732422	4114.466797	46.642986
644.482117	1103.599121	7518.501953	4101.304199	46.730328
644.815735	1105.448853	7490.928223	4086.743164	46.688656
645.149292	1101.555786	7467.140625	4079.215576	46.777470
645.482788	1098.996460	7448.965820	4070.891602	46.801723
645.816223	1098.566284	7431.716797	4063.535889	46.816666
646.149658	1097.705933	7428.146484	4062.331299	46.831268
646.483032	1098.652222	7430.468750	4068.632813	46.905663
646.816345	1100.630981	7431.608887	4065.127197	46.825249
647.149658	1102.244019	7439.351563	4069.945313	46.830532
647.482849	1102.910889	7446.212891	4076.806152	46.882450
647.816101	1104.825073	7450.600098	4076.806152	46.834011
648.149231	1104.932617	7464.882324	4080.376465	46.784077
648.482239	1106.674683	7469.527832	4088.140869	46.857380
648.815247	1107.513672	7467.269043	4085.043701	46.818310
649.148254	1106.050903	7468.194824	4087.195068	46.857536
649.481201	1104.588501	7461.182617	4086.936768	46.917389
649.814087	1106.631714	7451.654785	4079.086182	46.847027
650.146973	1107.018799	7444.514160	4074.482910	46.823929
650.479736	1107.449097	7438.620605	4074.590820	46.865601
650.812500	1109.384888	7438.943359	4068.353760	46.748421
651.145203	1110.481689	7432.791016	4061.513916	46.676491
651.477844	1107.965332	7429.307617	4061.148193	46.717655
651.810486	1108.137329	7416.251953	4058.825195	46.776066
652.143005	1105.083130	7405.906738	4054.330322	46.807327
652.475525	1104.437988	7396.120605	4053.061523	46.865421
652.807922	1106.266113	7389.001465	4046.351318	46.796261
653.140381	1106.610229	7376.376465	4037.683594	46.749325
653.472717	1103.620605	7354.674805	4036.113281	46.911968
653.805115	1103.018433	7323.789551	4023.853760	46.952950
654.137390	1102.824829	7287.226074	4008.066650	46.976925
654.469543	1097.684448	7250.768555	3995.979492	47.103127
654.801758	1098.329590	7218.700195	3982.493652	47.124012
655.133850	1099.405151	7179.599609	3966.706787	47.158062
655.465881	1098.888794	7139.163574	3947.198486	47.155296
655.797974	1096.974731	7113.440918	3935.325928	47.176380
656.129944	1097.555420	7086.577637	3921.604004	47.153748
656.461853	1099.448120	7063.047363	3915.710938	47.224213
656.793762	1102.738892	7047.625488	3913.151611	47.274452
657.125610	1104.373535	7052.852051	3914.377441	47.239037
657.457397	1103.556152	7071.069824	3930.594482	47.373806
657.789124	1103.534668	7116.387695	3951.242188	47.360336
658.120789	1105.749878	7179.706543	3988.020996	47.452942
658.452393	1106.997437	7273.008301	4032.306152	47.442482
658.783997	1105.943481	7375.924805	4080.720459	47.444748
659.115540	1106.696167	7501.123047	4138.706543	47.416451
659.447083	1107.793091	7609.265625	4190.691406	47.418465
659.778503	1107.233887	7715.730957	4246.526367	47.503880
660.109924	1107.018799	7793.073730	4284.917969	47.530258
660.441284	1105.513306	7858.179199	4316.620605	47.553181
660.772522	1106.760864	7893.945313	4334.945801	47.562946
661.103760	1107.922241	7915.217285	4337.806152	47.447392
661.434998	1106.481201	7898.011230	4334.149902	47.524910
661.766113	1106.008057	7844.434570	4303.156738	47.446514
662.097229	1102.932495	7755.154297	4259.086426	47.445110
662.428345	1104.351929	7642.860840	4205.811523	47.433743
662.759277	1103.835815	7506.284180	4144.384766	47.490410
663.090332	1106.051025	7372.504883	4082.398438	47.496517
663.421204	1105.964966	7237.068359	4015.853027	47.461082
663.752075	1104.201416	7111.053223	3961.867188	47.573437
664.082886	1103.491699	6993.533203	3910.269531	47.652939
664.413635	1103.147461	6897.714355	3864.156250	47.648235
664.744324	1101.986084	6798.562988	3822.150879	47.750862
665.075012	1102.738770	6720.575195	3788.534180	47.808357
665.405640	1101.405273	6651.684082	3762.380371	47.943089
665.736206	1103.018433	6597.204590	3742.377441	48.039124
666.066772	1102.287109	6552.811035	3725.428955	48.126415
666.397278	1104.545532	6512.850098	3710.244385	48.179585
666.727661	1104.760620	6481.276367	3703.534180	48.335644
667.058044	1107.298584	6457.229980	3695.533447	48.378841
667.388306	1106.244629	6443.937988	3685.897461	48.328983
667.718567	1108.008179	6436.582520	3677.789063	48.226425
668.048828	1108.524292	6420.128418	3675.401367	48.325836
668.378967	1109.685669	6420.214355	3675.401611	48.313755
668.709167	1110.761108	6417.482910	3673.315430	48.288837
669.039246	1113.793823	6422.258301	3672.068115	48.192364
669.369263	1113.578735	6419.311035	3670.346924	48.188786
669.699341	1114.869263	6418.881348	3670.626709	48.185360
670.029236	1111.557129	6416.343262	3665.486572	48.143871
670.359131	1111.062500	6409.267090	3652.560059	47.969032
670.688965	1111.105347	6394.383301	3645.225830	47.964931
671.018738	1110.804321	6371.907715	3638.945313	48.053436
671.348511	1109.513794	6346.979980	3634.019775	48.200901
671.678223	1109.126831	6323.922363	3622.599365	48.198875
672.007813	1109.793457	6291.059082	3611.759277	48.288700
672.337341	1109.771973	6263.012695	3597.069336	48.266663
672.666992	1107.126465	6228.685547	3581.067383	48.304451
672.996460	1106.567261	6194.315918	3567.237549	48.364624
673.325867	1106.674683	6163.687988	3552.181885	48.358730
673.655273	1107.664063	6137.255859	3539.621338	48.352974
673.984619	1108.137207	6105.014160	3522.802246	48.323483
674.314026	1106.352173	6081.786133	3510.585938	48.322094
674.643250	1109.169678	6066.751465	3497.207764	48.169411
674.972412	1108.911621	6044.662598	3480.539063	48.049980
675.301514	1109.836426	6022.487793	3468.257813	48.007099
675.630676	1108.115723	6002.120117	3452.191162	47.896881
675.959778	1108.997559	5975.536133	3442.641602	47.952850
676.288757	1110.331177	5957.340332	3432.963135	47.918865
676.617737	1110.589233	5939.982910	3424.402588	47.911057
676.946594	1110.481689	5927.228516	3417.563232	47.897087
677.275513	1112.159424	5917.485840	3412.315430	47.866802
677.604309	1110.933472	5916.410645	3416.466309	47.977188
677.933044	1111.514160	5917.894043	3414.530518	47.915821
678.261780	1111.105347	5922.927246	3420.338135	47.990826
678.590393	1111.083862	5944.069824	3432.640381	48.035660
678.919067	1111.298950	5971.642578	3446.728271	48.050701
679.247620	1111.557129	6012.680176	3465.590576	48.030491
679.576111	1109.234253	6065.073730	3486.023193	47.959366
679.904541	1110.481689	6116.520508	3510.757080	47.947598
680.232971	1110.331177	6170.592285	3533.577393	47.887768
680.561401	1111.514160	6222.878418	3557.171875	47.847454
680.889709	1108.029785	6266.690430	3578.636963	47.892414
681.217957	1108.847168	6304.565918	3594.767822	47.845558
681.546143	1107.147949	6336.118652	3609.672852	47.858845
681.874390	1106.567261	6363.929199	3615.544678	47.723129
682.202454	1107.104980	6377.048340	3619.265625	47.669594
682.530579	1105.362793	6373.069824	3616.232910	47.665333
682.858521	1104.653076	6347.904785	3605.306885	47.692802
683.186523	1104.459473	6305.984863	3582.400879	47.638744
683.514465	1104.610107	6256.107910	3555.580566	47.577820
683.842346	1107.664185	6199.477051	3529.577148	47.564846
684.170166	1105.814453	6130.351074	3499.552246	47.640965
684.497925	1106.244751	6065.568848	3470.968018	47.682365
684.825623	1107.599609	5997.044922	3441.953369	47.742710
685.153320	1108.868652	5927.315430	3412.272461	47.803864
685.481018	1108.911621	5857.564453	3385.408691	47.939850
685.808533	1108.524414	5790.458984	3355.942383	48.001907
686.136047	1107.836182	5742.517578	3332.111816	47.991982
686.463623	1109.621460	5702.556152	3310.453369	47.917774
686.791016	1110.159058	5668.250488	3302.431152	48.096272
687.118408	1110.503174	5650.915039	3294.795410	48.107796
687.445740	1107.513550	5642.226074	3288.149170	48.087631
687.772949	1108.588989	5639.429688	3286.923340	48.077930
688.100220	1109.642944	5636.375977	3282.922607	48.009895
688.427429	1108.416992	5627.041504	3275.653320	47.962303
688.754517	1108.158813	5621.642578	3268.039307	47.853951
689.081604	1106.674683	5610.265137	3257.607910	47.760406
689.408630	1105.362793	5600.801270	3247.456055	47.650375
689.735657	1105.642456	5574.109863	3232.249756	47.591427
690.062622	1104.050781	5543.417969	3219.882813	47.660667
690.389465	1104.889526	5509.865234	3199.299805	47.546463
690.716248	1103.104370	5459.945313	3174.393555	47.541077
691.043091	1103.534546	5409.895996	3146.626709	47.443584
691.369812	1100.738525	5356.147461	3115.999268	47.357624
691.696533	1100.200806	5301.043457	3088.985107	47.342506
692.023132	1098.609253	5254.887207	3065.154053	47.315048
692.349670	1098.243652	5204.601563	3041.086670	47.313046
692.676270	1099.534058	5159.069824	3023.793945	47.400986
693.002747	1101.018066	5112.289551	3005.296875	47.473198
693.329163	1101.663330	5069.444824	2986.068848	47.492672
693.655518	1103.018433	5035.763672	2970.131348	47.476070
693.981873	1102.695801	5001.974121	2947.225586	47.304390
694.308167	1103.233521	4973.066895	2934.385254	47.318619
694.634399	1104.932617	4942.225098	2922.362305	47.362293
694.960571	1106.739380	4920.630859	2913.565430	47.374866
695.286743	1108.395386	4908.586426	2905.886963	47.300034
695.612854	1112.331421	4894.799805	2895.950195	47.154892
695.938904	1113.944580	4892.305176	2893.562744	47.100273
696.264832	1113.406738	4900.606934	2891.132568	46.940372
696.590820	1113.922974	4914.587891	2894.745850	46.855560
696.916687	1115.148926	4947.494629	2911.371338	46.870052
697.242554	1115.192017	4991.392578	2926.642334	46.732624
697.568359	1114.675781	5060.712891	2962.173584	46.819069
697.894043	1112.761597	5152.788574	3001.167725	46.742416
698.219788	1111.707642	5268.050293	3049.130615	46.613647
698.545349	1111.557129	5390.603027	3100.750000	46.486832
698.870972	1110.460205	5502.703125	3153.250732	46.509048
699.196533	1106.868408	5613.749512	3205.687500	46.569218
699.521973	1106.545776	5703.437988	3247.886475	46.582359
699.847412	1105.835938	5769.488770	3283.094727	46.685696
700.172852	1104.093872	5815.709961	3302.796631	46.665573
700.498169	1101.297852	5836.680176	3303.678223	46.509029
700.823486	1099.813721	5825.216309	3296.408691	46.484825
701.148682	1101.986084	5778.306641	3273.394775	46.434132
701.473816	1105.083252	5696.382813	3232.056396	46.326164
701.799072	1105.879028	5577.120605	3180.523193	46.399731
702.124146	1105.706909	5441.641602	3116.300537	46.370480
702.449158	1104.158325	5300.936523	3047.883057	46.314686
702.774109	1105.964966	5162.812012	2979.788330	46.189152
703.099060	1104.631470	5029.117676	2915.608398	46.145580
703.424011	1104.437866	4913.533203	2854.955811	45.956264
703.748840	1105.792969	4806.660156	2801.486572	45.818817
704.073608	1108.546021	4708.862793	2759.567627	45.857674
704.398315	1109.083740	4621.755371	2719.713135	45.851978
704.723022	1106.072632	4552.198730	2685.364746	45.828045
705.047668	1102.781860	4495.869141	2663.534180	45.998001
705.372253	1099.448120	4451.777832	2635.595459	45.823280
705.696716	1099.146973	4410.267090	2615.937012	45.808971
706.021240	1100.136353	4376.305176	2600.408203	45.793484
706.345764	1099.749146	4348.086914	2589.310059	45.856094
706.670044	1100.222290	4330.923340	2580.169189	45.808846
706.994446	1100.265381	4310.254395	2572.211182	45.855167
707.318665	1101.061035	4298.081055	2570.125000	45.951042
707.642883	1100.157837	4292.510254	2564.554443	45.872021
707.967102	1098.050049	4292.812012	2562.898193	45.851559
708.291260	1099.706177	4293.822266	2561.693848	45.771275
708.615295	1102.050537	4291.865234	2561.779541	45.762188
708.939331	1102.029053	4298.231445	2566.661865	45.824158
709.263367	1101.943115	4309.265137	2571.135742	45.807457
709.587280	1102.115112	4325.977051	2578.233398	45.787270
709.911194	1100.480347	4344.538086	2585.997803	45.791958
710.234985	1099.835205	4365.529785	2595.461182	45.798096
710.558716	1100.717041	4396.308105	2608.710205	45.757896
710.882568	1102.889282	4426.140137	2621.572021	45.698708
711.206177	1102.889404	4457.950195	2637.681641	45.745586
711.529785	1107.513550	4485.265625	2650.737061	45.687889
711.853394	1108.029785	4506.816895	2660.071533	45.664577
712.176880	1105.986450	4521.592285	2663.534424	45.600925
712.500427	1107.707153	4531.206543	2671.169678	45.668549
712.823792	1107.384521	4530.346191	2671.126709	45.683895
713.147217	1106.093872	4531.399902	2667.405762	45.581673
713.470520	1106.825317	4518.710449	2657.727051	45.455860
713.793823	1106.373535	4501.353516	2648.779785	45.431969
714.117004	1108.976074	4472.166992	2635.917969	45.401581
714.440247	1104.868042	4443.690918	2618.754639	45.341927
714.763367	1102.760254	4412.395996	2604.860352	45.385662
715.086365	1100.329834	4382.779297	2591.073975	45.415600
715.409485	1098.609253	4355.507324	2581.567383	45.532841
715.732361	1101.276245	4341.785156	2573.050049	45.417984
716.055298	1100.329956	4323.395996	2563.070313	45.383507
716.378174	1101.147339	4308.361328	2558.166504	45.429436
716.700928	1103.319580	4286.186523	2552.638916	45.535027
717.023804	1104.201294	4265.281250	2547.584229	45.661068
717.346558	1104.007813	4237.363770	2538.722900	45.788448
717.669189	1100.480469	4207.661621	2527.904541	45.939518
717.991760	1101.878418	4171.678711	2515.107178	46.036507
718.314392	1102.996948	4133.953613	2496.717773	45.982872
718.636902	1102.588257	4093.410400	2479.511475	46.038284
718.959351	1103.297974	4045.125000	2455.142822	45.952560
719.281738	1101.061157	3988.989014	2433.505859	46.138435
719.604065	1102.115112	3935.863525	2410.191162	46.160625
719.926453	1102.781738	3882.695557	2387.005615	46.196537
720.248718	1103.340942	3835.851563	2362.228271	46.070717
720.570923	1102.867798	3792.599121	2338.633789	45.943844
720.893066	1102.652710	3753.239746	2315.663574	45.763859
721.215088	1104.437866	3720.697754	2298.736572	45.649086
721.537170	1103.469971	3689.274414	2285.057617	45.695168
721.859192	1106.330566	3656.625000	2271.227783	45.676971
722.181152	1106.352051	3627.287598	2256.451660	45.621937
722.503052	1106.266113	3610.834473	2248.450928	45.604057
722.824951	1106.567139	3591.348389	2238.729248	45.563854
723.146790	1106.352051	3574.485840	2230.835693	45.560078
723.468506	1104.717529	3564.161865	2223.049805	45.470932
723.790161	1102.480591	3549.773438	2221.737793	45.734501
724.111816	1099.899658	3537.320313	2219.887939	45.949734
724.433472	1100.200684	3528.436768	2219.844727	46.109356
724.755005	1098.480225	3522.715820	2217.328369	46.152615
725.076477	1099.146973	3519.081299	2214.360352	46.084450
725.397888	1098.501831	3519.769531	2213.607422	46.054619
725.719299	1097.662964	3522.264160	2216.984375	46.165180
726.040710	1097.060669	3518.736816	2219.586914	46.353275
726.361938	1098.953369	3524.565674	2225.695068	46.451847
726.683167	1100.824585	3530.178955	2231.437744	46.539654
727.004395	1102.179565	3539.061768	2235.954590	46.525639
727.325500	1104.351929	3550.547119	2240.686279	46.453133
727.646667	1107.621094	3572.915771	2248.644287	46.283440
727.967651	1109.707397	3590.681396	2255.204102	46.171249
728.288635	1112.675537	3607.371826	2262.237305	46.080231
728.609558	1112.309814	3623.545898	2271.077148	46.143307
728.930481	1111.514160	3633.159912	2279.164063	46.305073
729.251282	1112.611084	3644.666260	2285.336914	46.315178
729.572021	1112.976685	3656.840088	2288.390869	46.205872
729.892761	1110.266479	3661.572021	2286.627441	46.108192
730.213440	1110.395630	3669.250244	2287.939453	46.018398
730.534119	1109.857910	3674.411865	2291.854004	46.089733
730.854675	1109.148071	3682.327393	2293.789795	46.038059
731.175171	1106.588745	3681.402100	2295.402588	46.170872
731.495605	1104.050781	3687.596680	2298.843994	46.246254
731.816101	1102.050537	3686.951416	2303.855469	46.493271
732.136475	1101.620239	3687.231201	2307.275146	46.629402
732.456787	1100.587891	3693.103027	2311.211182	46.696865
732.777039	1100.308472	3696.952881	2314.609375	46.764233
733.097229	1099.082397	3700.393799	2317.018555	46.820080
733.417480	1099.684692	3703.340088	2320.911377	46.904316
733.737549	1096.501465	3693.898193	2323.621338	47.244221
734.057617	1097.877930	3682.671143	2320.395264	47.296524
734.377563	1097.684326	3662.690430	2314.545166	47.440857
734.697510	1098.802856	3634.579590	2304.306885	47.539829
735.017517	1099.125488	3600.575195	2292.133301	47.692657
735.337341	1096.329346	3568.678711	2276.669434	47.741638
735.657166	1097.533691	3538.072754	2261.291260	47.684448
735.976868	1096.716431	3502.692139	2245.740479	47.757095
736.296631	1096.716553	3467.418701	2228.835449	47.754581
736.616272	1098.458740	3430.403320	2215.672363	47.909100
736.935852	1097.856445	3399.023438	2201.692383	47.968529
737.255371	1099.813721	3378.870361	2187.088379	47.707226
737.574829	1100.996582	3354.071045	2178.807617	47.837345
737.894348	1102.330200	3338.284180	2174.506104	47.951607
738.213745	1103.362427	3335.122803	2174.312744	47.986801
738.533081	1104.803589	3335.595947	2175.861084	48.012421
738.852356	1108.911621	3337.295166	2177.560059	47.956215
739.171570	1108.330811	3338.133789	2182.377930	48.167805
739.490784	1108.115723	3339.123291	2186.098877	48.318222
739.809937	1107.620972	3336.907959	2190.852295	48.590931
740.129028	1108.847046	3333.402344	2192.185547	48.699108
740.447998	1108.115723	3327.681152	2191.712402	48.820217
740.767029	1107.986694	3314.045166	2191.282227	49.105473
741.085999	1105.835938	3303.506348	2188.851807	49.280178
741.404846	1103.362427	3284.750977	2180.334717	49.370949
741.723633	1101.039551	3259.070313	2169.601807	49.515617
742.042358	1101.792358	3229.152588	2159.880615	49.737144
742.361145	1100.867676	3199.106201	2149.836182	49.992817
742.679810	1102.050659	3167.618164	2136.286133	50.070286
742.998413	1104.588501	3138.711670	2123.252441	50.078773
743.316956	1106.287598	3109.288330	2109.766602	50.098785
743.635498	1103.964844	3084.317383	2100.238770	50.307907
743.953979	1106.029663	3061.798584	2092.345215	50.431087
744.272400	1105.341309	3038.871338	2082.817383	50.553963
744.590698	1105.900513	3018.245117	2073.267334	50.585381
744.909058	1105.771484	2999.102539	2069.181152	50.884377
745.227356	1107.470703	2980.326416	2064.771729	51.114510
745.545471	1106.137085	2962.990723	2057.158203	51.216805
745.863586	1105.190674	2947.634277	2052.663086	51.424770
746.181702	1103.599121	2936.062988	2046.597656	51.460690
746.499756	1101.405396	2924.835693	2041.994995	51.583523
746.817810	1100.480469	2914.683838	2042.166870	51.906330
747.135742	1102.394653	2908.962891	2040.984253	51.954285
747.453613	1102.416138	2897.305420	2042.188599	52.358242
747.771423	1103.534546	2891.218750	2046.705200	52.759354
748.089233	1104.072388	2885.540527	2053.243652	53.280281
748.406982	1106.201660	2886.422119	2057.394531	53.431183
748.724609	1106.352173	2889.626953	2064.212646	53.713566
749.042236	1107.814697	2892.078613	2075.117432	54.212986
749.359863	1107.147949	2895.412354	2084.021729	54.626923
749.677429	1107.018799	2894.982178	2093.313232	55.163010
749.994873	1108.352417	2896.057861	2104.884521	55.743641
750.312256	1107.449097	2897.305420	2111.229492	56.081619
750.629639	1105.448730	2894.079346	2119.510010	56.694839
750.946960	1102.394653	2897.348389	2126.156006	57.035530
751.264282	1102.695801	2897.735596	2131.038330	57.288006
751.581482	1099.447998	2897.843018	2135.856201	57.629620
751.898621	1098.394043	2894.767334	2141.469727	58.065643
752.215698	1097.641357	2890.250488	2144.179932	58.380745
752.532715	1095.555054	2890.186035	2148.051270	58.646942
752.849792	1096.608887	2888.551514	2154.052002	59.010990
753.166748	1096.437012	2887.540771	2163.795166	59.592201
753.483643	1097.125122	2882.809082	2171.193848	60.148869
753.800476	1097.404785	2885.948975	2181.281006	60.601032
754.117310	1097.254272	2889.734619	2191.991943	61.073902
754.434082	1100.200806	2885.948975	2202.186768	61.710041
754.750732	1099.405029	2888.422363	2212.747314	62.232056
755.067383	1102.244141	2887.885010	2224.662598	62.858017
755.383911	1102.179565	2885.002930	2237.933105	63.705334
755.700562	1103.448608	2881.453857	2251.526123	64.571098
756.016968	1105.642456	2881.453857	2262.344727	65.136551
756.333435	1105.169189	2877.754395	2270.797607	65.758667
756.649780	1106.158569	2875.431396	2282.153809	66.467712
756.966064	1103.706543	2878.184570	2296.521240	67.220596
757.282410	1105.599487	2877.625244	2312.050049	68.083130
757.598633	1105.233643	2882.271240	2324.804199	68.629417
757.914795	1104.825073	2896.337402	2342.096436	69.062958
758.230896	1104.545532	2901.757568	2359.260010	69.814491
758.546936	1102.308716	2909.822998	2375.778320	70.454193
758.862976	1102.523804	2918.791992	2393.672852	71.088020
759.178894	1103.018555	2928.728516	2415.589600	71.893730
759.494812	1103.083008	2934.729492	2434.731689	72.702278
759.810669	1102.996948	2944.429443	2458.046143	73.586685
760.126526	1102.760254	2954.323242	2479.317871	74.345711
760.442261	1103.642090	2959.721680	2497.535156	75.098778
760.757935	1104.222778	2963.442627	2515.322266	75.897400
761.073608	1105.212158	2963.077148	2532.442627	76.820999
761.389160	1106.223145	2959.635742	2547.283203	77.751717
761.704712	1106.115601	2961.743408	2566.640381	78.707855
762.020203	1108.029785	2966.690186	2585.524414	79.492447
762.335571	1110.051636	2980.756348	2612.344971	80.306282
762.650940	1108.459961	3021.342041	2661.125244	81.168900
762.966370	1108.481445	3090.081787	2735.865723	82.124748
763.281677	1108.094238	3187.427246	2832.652100	82.938034
763.596863	1107.104980	3289.590088	2936.385254	83.816391
763.911987	1108.330933	3376.978027	3026.611572	84.556152
764.227112	1108.201782	3447.481201	3099.953857	85.143837
764.542236	1109.513794	3499.917725	3159.811035	85.772011
764.857178	1108.760986	3536.459961	3206.074463	86.390999
765.172119	1111.234497	3560.376709	3234.637451	86.699860
765.487061	1110.954834	3571.862305	3255.886963	87.160210
765.801880	1108.223389	3565.560303	3263.307617	87.699989
766.116760	1108.180298	3531.813965	3240.164795	87.966438
766.431458	1104.653076	3459.460693	3188.287598	88.484276
766.746155	1105.319824	3352.996094	3104.685303	88.952553
767.060791	1105.513428	3239.605713	3010.738525	89.275665
767.375427	1105.835938	3135.850586	2926.513184	89.687889
767.689941	1104.610107	3043.925537	2857.644287	90.394485
768.004395	1102.889282	2969.206787	2801.916992	91.036369
768.318848	1101.878418	2905.542725	2752.276367	91.502502
768.633179	1098.845825	2852.310303	2717.132568	92.290817
768.947632	1098.200562	2804.261475	2683.665771	92.931335
769.261841	1100.179321	2762.600342	2650.005859	93.227081
769.576111	1100.372925	2719.992920	2622.410889	93.975006
769.890259	1103.534546	2686.526367	2600.666260	94.576088
770.204285	1104.588379	2656.543945	2581.653320	95.174438
770.518433	1104.502441	2624.927246	2561.865723	95.852371
770.832458	1105.921997	2599.913330	2544.315186	96.278549
771.146362	1105.857544	2576.641602	2526.291260	96.576630
771.460205	1106.008057	2551.283936	2508.224609	97.020683
771.774109	1107.771606	2528.399414	2494.803711	97.635155
772.087952	1109.083618	2510.547607	2480.866211	97.882118
772.401672	1109.320190	2493.814453	2470.026367	98.281822
772.715332	1108.008301	2477.532959	2461.014648	98.793869
773.028992	1108.180298	2460.993164	2454.239746	99.500786
773.342590	1107.922241	2446.754883	2441.033447	99.572655
773.656128	1105.685425	2431.699219	2432.000244	100.022705
773.969604	1105.986450	2420.729980	2423.762695	100.230667
774.283020	1102.889404	2403.114990	2416.514404	101.030548
774.596375	1101.061157	2390.769287	2407.781982	101.319115
774.909729	1102.437622	2380.531494	2403.458984	101.793884
775.223022	1101.577393	2369.756104	2398.598145	102.274292
775.536194	1099.319092	2355.560791	2390.511230	102.782143
775.849304	1097.318848	2342.247314	2382.230469	103.211685
776.162476	1096.286255	2329.364014	2376.079102	103.788498
776.475525	1096.436890	2321.836182	2368.572998	103.814011
776.788513	1094.909790	2311.791992	2365.863037	104.443405
777.101440	1097.103638	2304.285400	2364.013428	104.947723
777.414307	1097.727417	2294.628662	2362.465088	105.667671
777.727173	1098.222168	2295.811523	2360.399902	105.393196
778.039978	1097.963989	2290.090088	2360.593750	105.914108
778.352722	1097.856567	2282.777588	2355.474854	106.135201
778.665405	1099.254517	2278.863281	2354.958740	106.450905
778.977966	1103.104614	2273.507568	2354.249023	106.898605
779.290649	1106.502808	2272.689941	2356.550293	107.190987
779.603149	1107.771729	2269.915527	2358.421143	107.615723
779.915588	1108.890137	2269.463867	2360.335449	107.829887
780.227966	1110.159058	2265.011719	2360.356934	108.256050
780.540405	1110.825806	2259.763916	2358.206055	108.568100
780.852722	1110.847290	2255.225586	2357.474854	108.934921
781.164917	1111.836670	2247.590576	2354.635742	109.425034
781.477173	1112.890503	2240.987549	2352.054932	109.845551
781.789246	1112.740112	2233.330322	2348.204834	110.251251
782.101379	1111.449585	2226.791992	2340.483398	110.193405
782.413452	1109.148193	2217.801758	2333.859131	110.468315
782.725403	1107.341553	2204.552734	2327.041016	111.163605
783.037292	1105.857422	2196.981934	2318.394775	111.127312
783.349182	1104.115356	2183.259521	2309.189453	111.669426
783.661072	1104.480957	2174.269287	2302.607910	111.996635
783.972839	1104.739014	2166.483887	2291.230225	111.749184
784.284546	1105.534790	2158.654541	2279.336182	111.459442
784.596191	1104.007813	2148.072510	2269.571533	111.637115
784.907898	1105.319824	2140.910400	2260.559814	111.553734
785.219421	1105.599487	2138.888672	2255.892334	111.323418
785.530884	1103.685059	2133.296631	2253.505371	111.675156
785.842346	1101.899902	2129.511230	2249.225098	111.649719
786.153748	1103.706543	2128.285400	2241.654297	111.064926
786.465149	1105.749878	2125.016113	2238.385010	111.122597
786.776428	1106.760742	2123.596680	2237.374268	111.189377
787.087646	1105.018677	2123.596680	2235.868652	111.022423
787.398804	1102.738892	2128.242188	2248.579834	111.734497
787.709961	1101.233276	2137.082275	2263.592529	112.213196
788.021057	1103.405640	2154.181152	2284.154053	112.369232
788.332031	1104.179932	2168.505127	2299.252686	112.284554
788.643005	1104.007690	2180.033447	2313.705811	112.422783
788.953918	1105.663940	2188.249756	2326.223633	112.744843
789.264832	1107.147949	2198.917480	2338.268311	112.763756
789.575623	1107.298462	2206.423828	2349.215820	112.991417
789.886353	1106.739258	2209.219727	2356.356445	113.345970
790.197083	1106.352051	2213.435547	2356.851318	112.954376
790.507690	1106.115601	2211.392334	2357.560791	113.224602
790.818359	1107.900635	2200.466309	2343.301025	113.073334
791.128845	1108.137329	2187.346436	2327.492432	112.985992
791.439331	1105.126221	2166.375977	2305.167236	113.078094
791.749756	1104.782104	2145.491699	2285.767334	113.478844
792.060120	1103.964844	2123.144775	2265.850586	114.002022
792.370483	1104.846558	2106.927490	2244.815918	113.760208
792.680786	1103.147339	2090.302246	2229.760010	114.127243
792.990967	1100.781494	2074.170898	2213.156006	114.278473
793.301086	1100.502075	2062.943604	2197.519531	113.982765
793.611267	1101.426880	2046.511597	2186.270752	114.788002
793.921326	1102.824951	2038.596802	2177.517090	114.845528
794.231323	1101.276245	2035.133911	2174.247803	114.896690
794.541260	1101.297729	2027.778198	2171.882080	115.553902
794.851074	1102.265625	2027.907104	2169.688232	115.317070
795.161011	1098.265137	2031.240967	2171.989502	115.085976
795.470764	1098.071533	2039.284790	2179.065674	114.851135
795.780518	1096.953125	2045.221436	2187.303223	114.983292
796.090149	1099.405151	2051.867432	2196.938721	115.231186
796.399780	1099.405029	2061.093994	2210.682617	115.554779
796.709412	1100.007324	2064.169922	2217.177979	115.869530
797.018860	1099.232910	2071.396729	2225.781006	115.880478
797.328308	1099.964233	2072.385986	2229.889160	116.196999
797.637756	1097.985474	2073.375244	2229.738525	116.030853
797.947205	1097.619751	2074.558350	2229.652588	115.875534
798.256470	1099.211426	2069.503662	2227.888916	116.323456
798.565674	1103.018433	2063.288086	2222.038818	116.531891
798.874817	1103.921753	2053.007324	2211.413818	116.690430
799.183960	1105.319824	2041.629395	2201.498535	117.074387
799.493103	1104.717529	2030.810669	2187.045166	116.870277
799.802124	1106.524170	2017.411255	2173.581055	117.144806
800.111084	1105.900391	2009.431763	2162.418457	116.932083
800.419983	1106.610229	2000.828491	2149.040527	116.574478
800.728821	1106.158569	1994.246948	2137.576660	116.139130
801.037659	1110.847290	1983.901611	2130.629639	116.806290
801.346436	1113.041016	1975.319946	2120.434570	116.829201
801.655151	1112.395874	1968.351563	2112.605713	116.852989
801.963745	1112.137817	1960.952759	2102.862549	116.718575
802.272400	1111.686035	1954.586304	2094.539063	116.603714
802.580933	1108.782471	1948.757446	2088.667236	116.656425
802.889404	1110.395630	1939.681152	2081.461914	117.096733
803.197815	1108.244751	1933.056763	2071.073730	116.733139
803.506226	1107.879272	1927.916138	2066.062256	116.846329
803.814575	1107.664185	1922.775879	2061.029541	116.961311
804.122864	1106.008057	1917.463379	2057.932617	117.310776
804.431030	1104.459351	1914.172729	2054.233154	117.297531
804.739197	1103.620605	1916.108521	2054.921143	117.084885
805.047241	1103.943237	1915.699707	2055.652588	117.240746
805.355408	1103.147461	1918.151611	2057.631104	117.113960
805.663391	1104.760498	1919.184082	2061.674805	117.495895
805.971313	1105.427368	1921.098389	2065.524658	117.706436
806.279175	1104.330444	1924.969604	2069.568115	117.620232
806.587036	1105.341309	1926.711792	2073.525635	117.874252
806.894836	1105.018677	1926.840698	2075.741211	118.118340
807.202576	1103.168945	1925.292236	2072.966553	117.962555
807.510193	1104.093750	1923.464111	2069.761963	117.854912
807.817810	1101.211670	1923.743774	2065.589111	117.244957
808.125427	1099.684570	1918.001099	2058.039795	117.113022
808.432922	1096.436890	1911.183105	2048.748535	116.884453
808.740295	1096.630371	1904.515625	2042.919922	117.131676
809.047729	1096.910034	1897.159790	2031.864746	116.832863
809.355103	1098.867310	1889.890137	2019.024292	116.324959
809.662415	1097.748901	1881.760132	2005.044067	115.724770
809.969604	1097.318848	1873.199951	1994.741821	115.665009
810.276794	1097.146729	1862.832886	1984.074097	115.834320
810.583923	1097.662964	1855.520264	1977.836670	116.139771
810.890991	1097.576904	1849.755981	1970.717529	116.081482
811.197998	1100.265381	1838.636597	1963.082031	116.854050
811.505005	1100.545044	1829.732056	1957.145752	117.473389
811.811829	1102.781860	1824.849731	1951.618286	117.556320
812.118713	1103.427002	1818.332520	1944.111816	117.593834
812.425537	1100.007324	1810.654419	1936.583984	117.720406
812.732300	1098.286621	1803.857910	1928.755127	117.701576
813.038940	1097.555298	1795.985962	1922.905029	118.172035
813.345581	1098.673706	1790.673462	1917.205200	118.284943
813.652100	1100.028809	1789.146362	1910.666748	117.634201
813.958740	1101.491333	1781.769165	1907.203979	118.438759
814.265137	1101.383789	1776.757690	1905.010132	118.989845
814.571533	1101.469849	1774.047729	1901.633301	118.969635
814.877930	1102.523682	1773.122925	1897.331909	118.522087
815.184265	1103.964722	1768.821411	1895.439087	119.044357
815.490540	1104.093872	1763.143066	1894.987549	120.005257
815.796692	1106.631836	1762.971069	1896.084351	120.281174
816.102844	1107.771851	1762.368774	1898.643677	120.818138
816.408936	1108.976196	1766.799683	1901.052734	120.408676
816.714966	1108.438477	1770.885986	1901.869995	119.772736
817.020935	1109.556763	1771.810669	1905.655151	120.210449
817.326843	1107.513550	1777.725708	1908.257690	119.476219
817.632690	1106.459595	1779.919434	1910.408691	119.375954
817.938477	1104.911011	1788.436646	1915.656738	118.612335
818.244263	1103.018433	1796.803223	1921.356567	117.952736
818.549988	1102.459106	1803.621216	1929.443359	117.944801
818.855652	1100.889038	1818.934814	1941.896362	117.124474
819.161194	1098.738281	1837.646851	1962.178589	116.853470
819.466797	1097.254150	1861.133667	1990.096069	116.882561
819.772278	1095.339966	1890.406250	2024.250854	116.834396
820.077698	1095.038818	1919.743042	2064.148193	117.509933
820.383057	1092.285889	1959.597534	2112.369385	117.614410
820.688354	1094.092529	2009.173706	2169.709717	117.543365
820.993652	1094.329102	2079.547852	2252.773682	117.582474
821.298828	1096.415527	2214.726074	2413.288086	117.755531
821.604004	1097.899536	2465.746338	2716.121338	118.304314
821.909058	1096.824097	2844.459961	3162.585205	118.203186
822.214111	1099.060913	3285.396240	3689.209473	118.469856
822.519165	1100.630981	3705.297852	4196.907227	118.874176
822.824036	1102.007446	4058.803955	4623.885254	119.111275
823.128906	1105.749878	4342.279785	4968.594238	119.351418
823.433716	1106.007935	4574.932129	5246.241699	119.352097
823.738525	1109.234253	4759.578613	5468.419922	119.418480
824.043213	1106.954346	4896.929199	5637.537109	119.541245
824.347900	1105.685425	4988.102051	5746.346680	119.530220
824.652466	1104.437988	4985.327637	5751.981445	119.754593
824.957031	1104.308838	4849.633301	5593.445801	119.859756
825.261536	1103.599121	4573.706543	5266.953613	119.977684
825.565979	1103.706787	4218.823730	4843.459961	120.051773
825.870300	1101.448364	3871.468750	4420.611816	119.824516
826.174622	1104.050781	3593.305420	4082.613281	119.656799
826.478821	1102.093628	3401.754883	3852.714111	119.609825
826.783142	1102.007690	3285.482178	3717.858643	119.802223
827.087280	1101.018188	3221.195068	3637.289063	119.625450
827.391357	1103.018433	3180.673584	3589.476807	119.676178
827.695435	1106.373657	3141.894775	3542.739990	119.692505
827.999451	1107.771606	3105.331055	3496.346924	119.574677
828.303406	1106.954468	3065.025146	3450.491943	119.686058
828.607239	1106.309082	3027.084961	3403.840820	119.614777
828.911011	1104.373535	2986.262451	3353.813232	119.530952
829.214844	1106.481323	2942.364502	3302.280518	119.604523
829.518616	1101.770996	2881.453613	3226.873291	119.409058
829.822205	1099.168457	2785.355713	3107.718506	119.117851
830.125793	1098.802856	2655.705322	2947.268311	118.727119
830.429382	1097.684448	2507.988037	2771.762695	118.703392
830.732849	1098.179077	2366.185791	2597.676758	118.256287
831.036316	1097.125122	2247.095703	2453.314697	117.932549
831.339661	1096.996094	2152.202148	2332.267334	117.064461
831.642944	1097.963989	2073.009521	2231.007568	116.204170
831.946228	1098.888794	2006.377441	2154.675781	116.341621
832.249512	1099.082520	1956.866089	2098.066650	116.461098
832.552673	1098.802856	1924.474976	2060.233887	116.442230
832.855774	1102.373169	1913.957520	2053.050049	117.138397
833.158813	1104.244263	1932.303955	2077.547852	117.540268
833.461731	1105.384277	1976.287842	2132.694336	117.959106
833.764771	1105.341309	2036.574707	2203.047119	117.876549
834.067627	1103.792603	2098.690186	2276.174805	117.839485
834.370422	1103.233398	2151.191162	2340.935303	118.106087
834.673157	1101.792358	2194.078369	2395.651855	118.454277
834.975891	1100.846069	2228.921143	2443.528809	119.024239
835.278564	1101.749390	2257.096680	2474.736816	118.837639
835.581177	1102.394653	2272.690186	2495.621094	119.049110
835.883728	1103.556030	2277.465088	2501.105713	119.050934
836.186218	1104.308838	2261.549316	2478.715820	118.765892
836.488647	1105.448730	2222.920654	2431.419434	118.658081
836.791077	1104.739014	2158.977295	2354.227051	118.520454
837.093384	1104.760498	2080.171631	2264.839600	118.932320
837.395630	1105.513306	2004.011719	2177.839844	119.346512
837.697815	1106.782349	1935.186035	2095.528564	119.355606
838.000061	1108.653564	1870.919922	2020.401123	119.610100
838.302124	1111.621582	1817.149902	1953.575439	119.336647
838.604126	1109.685913	1769.058105	1899.525757	119.786644
838.906128	1108.309448	1729.268066	1848.013794	119.122971
839.208069	1105.255127	1694.123779	1806.589355	119.098587
839.510010	1102.824829	1674.121460	1779.338745	118.417274
839.811829	1102.114990	1658.850708	1765.165161	119.096039
840.113586	1101.577271	1653.064941	1758.863159	119.184151
840.415222	1103.168945	1650.699219	1754.819458	119.016342
840.716919	1103.104492	1648.032349	1750.001831	118.712471
841.018555	1104.072388	1644.848877	1746.625000	118.820366
841.320068	1100.286865	1644.203613	1745.205444	118.569351
841.621521	1096.651978	1642.418457	1741.420044	118.139915
841.922974	1099.620117	1639.471924	1734.967651	117.689247
842.224365	1100.738525	1635.191772	1729.311035	117.610382
842.525635	1102.158081	1626.932861	1720.041138	117.742523
842.826965	1100.738525	1612.565308	1702.511841	117.573631
843.128174	1102.029053	1592.476929	1674.830933	116.791588
843.429260	1101.684814	1573.872314	1648.333252	115.769356
843.730408	1100.308228	1551.912842	1621.792236	115.473579
844.031433	1099.146851	1530.770386	1596.047241	115.123566
844.332397	1097.856323	1515.349121	1576.947998	114.754478
844.633362	1099.491089	1498.572754	1559.935181	115.375908
844.934204	1100.846191	1484.571045	1544.965576	115.739021
845.235046	1100.007324	1472.634155	1532.383545	116.034645
845.535828	1101.534424	1456.997925	1520.424927	117.843468
845.836487	1100.781738	1448.093506	1510.036621	117.835014
846.137146	1101.878540	1434.887451	1503.003418	120.454697
846.437744	1102.545288	1427.854370	1495.690674	120.852875
846.738281	1103.448486	1417.229248	1485.775513	121.845276
847.038757	1104.287476	1411.551147	1478.806885	121.888603
847.339172	1104.911011	1405.765503	1471.623169	121.890205
847.639526	1103.900269	1403.034058	1463.536255	120.225800
847.939819	1105.147583	1398.732422	1455.814941	119.443275
848.240112	1106.825317	1394.538452	1449.427002	119.077530
848.540283	1107.449097	1390.408936	1442.049805	118.250244
848.840393	1105.964966	1389.118408	1435.403809	116.346405
849.140564	1107.104858	1386.429932	1429.360107	115.369255
849.440552	1108.567505	1385.118042	1422.025879	113.345787
849.740540	1108.847168	1380.644409	1415.358276	112.771973
850.040405	1109.126709	1377.203003	1412.540527	113.181892
850.340210	1108.675049	1371.869019	1409.185425	114.178291
850.640137	1110.180542	1369.847168	1406.281738	114.031288
850.939819	1109.148193	1366.083130	1403.894409	114.716286
851.239502	1110.524658	1361.717163	1402.109253	116.080132
851.539185	1110.589111	1355.802368	1398.452881	117.393234
851.838745	1108.545898	1352.404175	1394.129761	117.110588
852.138245	1106.653198	1350.984619	1394.215698	117.693619
852.437744	1104.911133	1346.446411	1392.925293	119.243103
852.737122	1104.308838	1346.683105	1390.559448	118.102722
853.036499	1104.739014	1346.855103	1389.742065	117.713387
853.335815	1103.340942	1345.758179	1388.021484	117.434120
853.635010	1104.050781	1346.833618	1385.117920	115.768951
853.934204	1105.341309	1349.285522	1385.935181	115.023788
854.233276	1108.373901	1348.855347	1387.634277	116.125542
854.532410	1106.868408	1351.758911	1385.096436	113.613235
854.831482	1106.007935	1352.726807	1383.590942	112.509842
855.130371	1106.438232	1350.726563	1383.848877	113.558701
855.429260	1108.804077	1347.113159	1380.407715	113.971169
855.728088	1109.987061	1345.478516	1378.149292	113.873444
856.026855	1109.750488	1342.940552	1378.428833	115.218605
856.325623	1108.911621	1341.822144	1379.934448	116.363495
856.624329	1107.986816	1339.972534	1378.450317	116.586273
856.922913	1105.771362	1337.692505	1376.105957	116.563156
857.221436	1104.846558	1332.939331	1374.578979	118.255577
857.519958	1102.781738	1328.917480	1370.169800	118.242279
857.818420	1102.695801	1325.519165	1370.363403	120.125465
858.116821	1101.534302	1325.088989	1370.126831	120.146233
858.415161	1101.512817	1325.454590	1370.901123	120.293907
858.713379	1099.964355	1326.809692	1369.094360	118.640305
859.011658	1100.867676	1329.863770	1369.954712	117.507263
859.309814	1100.372925	1327.605347	1367.782349	117.681015
859.607910	1098.630737	1325.519043	1366.190796	117.925896
859.905945	1100.050293	1325.669678	1365.717529	117.750183
860.203979	1099.727661	1323.475830	1365.739136	118.888786
860.501953	1099.663086	1320.206543	1360.749146	118.383041
860.799744	1100.243774	1315.582397	1359.738403	120.505379
861.097656	1099.792114	1315.152222	1356.404541	119.155045
861.395325	1100.007324	1313.990723	1352.877319	118.172714
861.693115	1100.673950	1311.753906	1349.973633	118.106750
861.990784	1100.716919	1310.872192	1349.414551	118.339943
862.288330	1102.158081	1306.484497	1348.059448	120.347321
862.585815	1101.641846	1306.484497	1345.844238	119.214622
862.883301	1100.932129	1305.710205	1342.639526	118.033829
863.180786	1100.738403	1303.537964	1337.800293	116.894676
863.478149	1103.319458	1304.204590	1338.875610	117.259125
863.775452	1102.910767	1307.086792	1342.596558	117.391739
864.072693	1102.007446	1309.968750	1341.391968	115.110130
864.369873	1102.373169	1307.624390	1341.607056	116.556618
864.667114	1102.717285	1306.183350	1341.564087	117.389015
864.964111	1102.652832	1306.613525	1341.090942	116.903954
865.261169	1104.717529	1305.387573	1341.972778	118.231522
865.558105	1102.502197	1304.613281	1341.736206	118.367584
865.855042	1104.158325	1302.849609	1342.144897	119.777054
866.151917	1105.620972	1301.666626	1342.962158	121.064240
866.448730	1106.502686	1304.183105	1344.510742	120.400421
866.745422	1103.878662	1302.806519	1343.155762	120.283356
867.042114	1103.556152	1302.612915	1341.090942	119.330177
867.338806	1105.921875	1302.225952	1340.961792	119.732567
867.635376	1105.792847	1304.484253	1339.155151	117.449623
867.931824	1104.803467	1303.236694	1339.284302	118.166115
868.228271	1103.749634	1302.591553	1337.972290	117.793396
868.524658	1103.276489	1302.871094	1336.810791	117.004318
868.821045	1103.470093	1305.753174	1335.068726	114.492340
869.117310	1102.717285	1305.710205	1334.746094	114.303894
869.413574	1101.598877	1306.613403	1334.918091	113.806183
869.709717	1100.286987	1303.150635	1332.616699	114.525063
870.005859	1101.448364	1302.161255	1330.444458	114.091377
870.301880	1102.437622	1300.483765	1331.691895	115.758011
870.597900	1100.157715	1299.903076	1330.121826	115.128639
870.893860	1099.835083	1299.902954	1332.251099	116.168587
871.189636	1098.630737	1300.612793	1331.670410	115.376427
871.485535	1100.093262	1300.333130	1333.175903	116.401718
871.781311	1099.899780	1299.107178	1333.068481	117.048218
872.077026	1102.158081	1295.536987	1333.283569	119.519493
872.372681	1102.029053	1295.429443	1334.143799	120.017723
872.668274	1102.459106	1296.719849	1334.488037	119.442009
872.963806	1104.072144	1297.881348	1337.929199	120.663544
873.259338	1103.642090	1300.010498	1338.961548	119.835701
873.554688	1102.157959	1300.956909	1338.144409	118.706085
873.850098	1103.964722	1300.634277	1339.606934	119.816315
874.145447	1102.459106	1298.978149	1339.606934	120.674225
874.440674	1106.760742	1298.849121	1338.122925	120.445694
874.735840	1108.373901	1299.386841	1338.316528	120.380653
875.031006	1107.234009	1300.182617	1337.864746	119.529617
875.326050	1104.179810	1300.182617	1338.617554	119.609383
875.621094	1104.610107	1300.849365	1338.144409	119.004883
875.916077	1104.588501	1299.300903	1335.928955	118.811363
876.210999	1103.900391	1300.075073	1333.993286	117.289803
876.505798	1103.964722	1299.924561	1332.122070	116.430664
876.800598	1104.007935	1300.118042	1332.036011	116.275536
877.095337	1105.534912	1298.741577	1329.713135	116.030273
877.390015	1109.858032	1298.311401	1325.820190	114.597130
877.684692	1107.126465	1299.558838	1327.691528	114.619522
877.979187	1104.588501	1300.139526	1327.175293	113.825432
878.273804	1103.964722	1299.687988	1328.379761	114.659355
878.568237	1105.255127	1304.548706	1328.938965	112.238358
878.862610	1105.298096	1310.226807	1330.358521	109.823761
879.156921	1105.040161	1314.958618	1336.273193	110.153740
879.451172	1106.115479	1317.819214	1343.413818	112.089821
879.745422	1104.825073	1324.336060	1353.436523	113.256950
880.039612	1105.642456	1335.434326	1366.448853	113.496788
880.333679	1104.050781	1354.748535	1393.505981	115.459831
880.627686	1102.265747	1386.946167	1434.543335	116.719505
880.921692	1103.620728	1434.801514	1493.453857	117.710068
881.215698	1104.502441	1511.972290	1586.454712	118.279251
881.509460	1103.276489	1622.695801	1717.696777	118.289841
881.803345	1101.942993	1750.367554	1874.447266	119.135567
882.097046	1100.437500	1884.534668	2039.263550	119.733383
882.390808	1101.577393	2013.023804	2192.593994	119.701675
882.684448	1101.878540	2128.027100	2325.298828	119.224480
882.978027	1102.158081	2228.620361	2447.228027	119.406570
883.271545	1099.813599	2315.383789	2551.778320	119.447212
883.565002	1098.716675	2382.854492	2629.250488	119.187660
883.858398	1097.512329	2424.558350	2676.740234	119.003250
884.151733	1096.393921	2439.592285	2694.656494	118.989319
884.445068	1096.286377	2415.374512	2667.147461	119.086891
884.738281	1098.308105	2349.688965	2586.062256	118.889000
885.031433	1098.587769	2249.848633	2467.660400	118.919411
885.324585	1100.501953	2134.995850	2331.062744	118.952927
885.617676	1099.276001	2024.035645	2193.906006	118.369133
885.910645	1097.533813	1920.603394	2072.858887	118.498497
886.203552	1098.329590	1828.484741	1958.715576	117.836052
886.496521	1100.243896	1741.032837	1854.100464	117.645065
886.789368	1099.405029	1665.152466	1761.809692	117.084869
887.082153	1100.329956	1598.241089	1684.703491	117.365028
887.374817	1098.974976	1540.234009	1613.361206	116.572395
887.667480	1096.372314	1489.281372	1551.891357	115.934982
887.960083	1097.727417	1447.986084	1504.487549	116.131355
888.252625	1098.867310	1418.218872	1469.794922	116.150246
888.545166	1097.555420	1393.807251	1443.382935	116.734306
888.837524	1100.630981	1371.288330	1422.240723	118.825424
889.129883	1100.738525	1354.920776	1404.733154	119.597115
889.422241	1101.383667	1337.477661	1388.365601	121.554100
889.714478	1109.599854	1316.141602	1389.010864	135.280640
890.006714	1098.716797	1306.441406	1368.900757	130.068344
890.298767	1126.870850	1291.299683	1328.444092	122.589958
890.590881	1096.350830	1287.750977	1339.090576	126.823174
890.882935	1098.953369	1280.416748	1334.832031	129.986923
>>>>>End Processed Spectral Data<<<<<
