Jaz Data File
++++++++++++++++++++++++++++++++++++
Date: Mon Apr 22 19:26:28 2019
User: jaz
Dark Spectrum Present: Yes
Reference Spectrum Present: Yes
Processed Spectrum Present: Yes
Spectrometers: JAZA2928
Integration Time (usec): 40000 (JAZA2928)
Spectra Averaged: 10 (JAZA2928)
Boxcar Smoothing: 5 (JAZA2928)
Correct for Electrical Dark: No (JAZA2928)
Strobe/Lamp Enabled: Yes (JAZA2928)
Correct for Detector Non-linearity: No (JAZA2928)
Correct for Stray Light: No (JAZA2928)
Number of Pixels in Processed Spectrum: 2048
>>>>>Begin Processed Spectral Data<<<<<
W	D	R	S	P
190.104553	0.000000	0.000000	0.000000	0.000000
190.488098	0.000000	0.000000	0.000000	0.000000
190.871613	1077.423828	1084.994751	1040.279541	-490.617706
191.255096	1080.499390	1079.079956	1039.569702	2883.522461
191.638535	0.000000	0.000000	0.000000	0.000000
192.021942	903.294739	908.865295	896.218567	-127.028091
192.405334	1004.317993	1010.039124	996.639648	-134.210266
192.788696	1107.599609	1112.288330	1097.942505	-205.964600
193.172012	1111.471069	1116.052246	1106.158691	-115.960991
193.555313	1116.138306	1118.654663	1112.761597	-134.190353
193.938568	1122.375488	1122.956299	1119.041870	-573.959656
194.321793	1125.386597	1126.505127	1123.472534	-171.123001
194.704987	1126.655640	1129.473267	1123.192871	-122.896629
195.088150	1127.429810	1129.387207	1124.053223	-172.503891
195.471298	1126.505249	1131.710083	1122.160645	-83.472488
195.854401	1127.494629	1132.054199	1121.838013	-124.060287
196.237457	1129.064575	1128.957031	1120.611816	7859.818359
196.620499	1129.043091	1130.441040	1120.762451	-592.341919
197.003494	1127.171875	1130.140137	1122.095825	-171.010864
197.386475	1126.999878	1131.129395	1119.171021	-189.582901
197.769424	1126.419067	1132.441406	1119.063354	-122.140465
198.152344	1123.365112	1134.527832	1117.687012	-50.866642
198.535217	1120.934570	1135.947266	1116.245972	-31.230892
198.918076	1121.149658	1138.098022	1117.944946	-18.908680
199.300903	1121.838013	1139.668091	1117.471802	-24.487896
199.683670	1123.838257	1144.421387	1117.192139	-32.289154
200.066422	1123.730591	1145.023560	1117.772827	-27.979958
200.449142	1121.967041	1147.884277	1118.138550	-14.771989
200.831848	1122.719849	1149.174683	1116.675903	-22.846279
201.214508	1123.537109	1149.002686	1114.847778	-34.121872
201.597137	1122.891846	1150.120972	1117.084595	-21.327351
201.979736	1122.612183	1152.874146	1118.052490	-15.067405
202.362274	1122.633789	1149.088623	1118.783691	-14.553475
202.744827	1121.257202	1147.625977	1118.633301	-9.950790
203.127319	1119.171021	1146.055908	1118.762329	-1.520153
203.509796	1116.525513	1142.786621	1116.331909	-0.737225
203.892227	1113.406860	1136.872070	1117.321167	16.681320
204.274643	1110.567749	1137.151489	1116.869629	23.705769
204.657013	1110.804321	1134.850342	1115.105957	17.889179
205.039352	1108.223389	1132.441406	1117.729980	39.254211
205.421661	1104.932617	1135.796753	1117.342773	40.208988
205.803940	1103.964722	1135.516968	1117.858887	44.035423
206.186188	1103.771118	1133.344727	1116.826660	44.145920
206.568405	1101.921387	1134.248169	1113.148682	34.730629
206.950592	1103.297974	1136.119263	1111.772217	25.819349
207.332748	1101.340698	1133.882446	1109.169800	24.058640
207.714859	1099.964233	1136.269775	1109.255737	25.592522
208.096939	1099.598511	1137.732422	1108.051270	22.165989
208.478989	1098.695190	1137.280762	1107.126465	21.850847
208.861008	1098.931763	1138.291626	1107.449097	21.639643
209.243011	1099.318848	1140.765137	1105.384277	14.634434
209.624969	1098.652222	1139.410034	1106.416748	19.050400
210.006897	1098.480103	1140.377808	1106.179932	18.377687
210.388794	1097.469238	1141.345703	1107.061890	21.862864
210.770645	1097.426270	1141.603882	1109.126587	26.484720
211.152481	1097.146606	1140.549927	1112.266846	34.836597
211.534286	1097.404785	1143.152344	1111.750488	31.358402
211.916061	1097.490723	1141.238159	1112.890503	35.201561
212.297791	1097.985474	1142.119995	1114.223999	36.793251
212.679489	1097.125122	1143.195435	1114.826294	38.422077
213.061157	1093.662354	1142.313599	1115.729614	45.358059
213.442795	1093.812988	1142.786743	1117.858887	49.099560
213.824402	1094.071167	1142.829712	1118.310669	49.713341
214.205963	1094.823730	1141.496216	1118.568726	50.875790
214.587524	1093.705444	1141.195190	1120.375366	56.159328
214.969025	1094.952881	1142.937378	1120.740967	53.742538
215.350510	1093.554932	1145.948486	1119.321411	49.178719
215.731949	1092.823730	1144.572021	1121.429199	55.278095
216.113358	1092.221558	1147.841309	1123.773682	56.728271
216.494736	1093.361328	1147.239014	1123.666138	56.247421
216.876083	1093.124878	1145.324707	1125.128784	61.310368
217.257401	1094.823975	1146.765747	1126.784912	61.532242
217.638702	1094.910034	1149.389771	1126.075073	57.204826
218.019943	1095.791748	1151.841553	1124.698486	51.573307
218.401169	1094.006592	1152.142700	1122.483276	48.982784
218.782349	1094.372070	1154.788208	1121.622925	45.105259
219.163498	1094.436646	1158.272583	1122.633789	44.171268
219.544632	1098.286621	1158.659668	1122.483276	40.078571
219.925705	1102.416138	1162.423584	1122.762817	33.906925
220.306778	1103.104370	1163.929199	1123.558716	33.628284
220.687805	1101.082520	1168.661011	1127.623657	39.274536
221.068802	1101.770996	1176.640503	1129.623901	37.201935
221.449738	1101.985840	1182.598145	1129.344238	33.938240
221.830673	1099.340454	1186.620117	1131.301392	36.618996
222.211563	1098.394043	1191.932617	1134.377075	38.468655
222.592438	1098.759766	1200.084106	1137.130127	37.868847
222.973267	1099.060913	1206.730225	1138.463623	36.596046
223.354065	1097.727417	1211.655518	1141.990967	38.852180
223.734848	1093.791382	1217.828369	1144.744019	41.078583
224.115555	1090.436157	1228.302734	1147.712036	41.544426
224.496262	1092.694458	1238.497559	1150.486572	39.637096
224.876923	1092.178223	1246.498535	1152.336304	38.982609
225.257568	1091.016846	1255.639526	1155.132324	38.946930
225.638168	1088.113281	1265.554688	1161.283691	41.236378
226.018723	1090.479248	1277.147583	1168.531860	41.813526
226.399277	1092.328735	1291.923462	1175.521973	41.681080
226.779785	1094.759277	1309.861206	1185.372681	42.125797
227.160263	1093.726929	1333.046875	1195.890137	42.688965
227.540695	1093.103149	1363.351685	1207.741089	42.419449
227.921112	1091.984741	1408.217529	1226.388550	42.501541
228.301483	1092.501099	1466.525879	1252.047607	42.656670
228.681824	1092.006348	1543.460083	1283.363281	42.386833
229.062134	1095.339966	1631.212891	1319.260254	41.786079
229.442413	1095.404419	1713.438232	1353.737549	41.799191
229.822647	1099.469604	1782.349976	1378.600952	40.875584
230.202881	1100.846069	1832.011841	1397.398926	40.558910
230.583054	1100.674072	1871.651245	1413.594482	40.587505
230.963196	1098.372681	1904.106934	1427.101440	40.798656
231.343292	1097.576782	1930.819946	1437.231812	40.763016
231.723404	1097.146606	1946.348755	1442.651855	40.685867
232.103439	1098.372681	1940.670654	1438.092163	40.332458
232.483459	1098.630737	1913.054321	1424.369995	39.996296
232.863434	1096.802612	1867.650757	1403.851440	39.832596
233.243393	1091.662109	1814.934814	1380.837769	39.981552
233.623306	1092.909668	1767.294434	1359.953491	39.598141
234.003174	1092.242920	1737.763672	1349.349976	39.829403
234.383041	1089.382324	1724.880371	1343.435425	39.977009
234.762848	1090.930786	1717.675293	1338.466919	39.495541
235.142639	1091.855591	1711.932495	1334.401978	39.115532
235.522385	1094.135498	1708.491089	1331.842529	38.692093
235.902115	1095.834839	1710.212036	1329.584106	38.046539
236.281799	1095.641113	1716.384766	1334.423340	38.467125
236.661438	1096.178833	1729.009888	1341.284424	38.731598
237.041077	1095.576660	1740.946899	1345.650513	38.748898
237.420654	1098.458618	1747.033569	1345.328003	38.063354
237.800217	1097.963989	1755.550659	1347.952026	38.015984
238.179733	1098.351074	1761.530029	1348.102539	37.659740
238.559219	1100.372925	1769.509644	1348.210083	37.038345
238.938690	1098.265137	1782.220703	1352.490112	37.169807
239.318100	1096.630493	1800.158325	1354.038818	36.588223
239.697510	1097.017578	1821.687988	1359.544800	36.227119
240.076859	1097.168091	1847.260986	1370.771973	36.475998
240.456177	1098.178955	1891.976440	1383.978027	36.004028
240.835464	1096.651855	1948.263184	1402.216797	35.880798
241.214722	1097.275757	2024.745728	1430.091309	35.884239
241.593948	1097.963989	2132.092285	1469.816528	35.958065
241.973129	1097.856567	2259.333740	1515.478149	35.956074
242.352295	1097.297363	2406.750000	1566.946899	35.866096
242.731415	1097.856323	2553.327148	1618.265137	35.755360
243.110519	1095.877686	2674.417480	1660.764893	35.785427
243.489578	1095.877686	2769.440186	1697.414795	35.943512
243.868607	1096.049805	2835.943115	1720.922974	35.914452
244.247604	1097.684448	2886.035156	1737.032349	35.750702
244.626541	1098.910278	2917.953125	1748.517700	35.711498
245.005493	1099.792114	2945.719727	1755.464844	35.519958
245.384369	1100.114868	2970.948975	1762.777466	35.420704
245.763229	1100.609497	2998.909180	1770.606567	35.294590
246.142059	1102.760254	3052.937500	1786.780518	35.074776
246.520859	1102.351685	3154.261475	1822.053589	35.074738
246.899612	1100.889038	3308.366943	1876.942139	35.155643
247.278336	1101.942993	3494.518799	1940.692139	35.056328
247.657043	1102.394653	3664.540039	1997.666870	34.942287
248.035690	1101.405273	3803.309570	2045.543823	34.943447
248.414322	1100.867676	3921.002197	2083.828125	34.855091
248.792908	1099.297607	4008.367432	2113.294189	34.856384
249.171478	1099.835205	4061.642822	2133.662109	34.905270
249.550003	1101.104126	4068.827148	2136.544189	34.890049
249.928482	1100.588013	4035.661621	2125.231201	34.910305
250.306961	1099.620117	3942.724854	2090.624756	34.856422
250.685364	1099.362061	3780.747803	2034.918457	34.890781
251.063782	1100.652466	3577.324951	1960.070435	34.700512
251.442123	1101.168701	3379.536865	1890.212769	34.631981
251.820450	1102.416138	3241.261963	1841.970215	34.577251
252.198761	1102.201050	3168.177490	1816.612183	34.579826
252.576996	1101.276245	3111.740479	1799.061768	34.707680
252.955246	1101.921509	3063.153809	1781.425049	34.646763
253.333420	1101.039673	3017.792969	1765.853394	34.684364
253.711578	1100.437500	2990.306152	1756.991821	34.740738
254.089706	1100.308472	2965.872803	1748.194946	34.728714
254.467804	1098.716675	2948.537354	1744.280518	34.898727
254.845871	1099.856567	2933.202148	1738.279785	34.822853
255.223877	1098.996338	2907.005371	1730.708984	34.939686
255.601898	1100.480347	2870.334229	1718.083862	34.895733
255.979828	1098.265137	2818.026367	1701.673340	35.086742
256.357727	1098.630737	2763.826172	1683.154785	35.102428
256.735657	1098.480225	2741.457764	1672.142578	34.916019
257.113525	1098.071411	2758.492432	1676.766724	34.852325
257.491333	1098.480347	2812.197754	1692.252686	34.648205
257.869110	1097.835083	2891.799072	1719.395996	34.647346
258.246887	1097.684448	3007.146729	1756.819946	34.519428
258.624573	1097.232788	3174.092285	1808.761719	34.259850
259.002289	1097.275757	3402.142090	1883.093628	34.093861
259.379944	1098.566284	3704.265625	1985.471924	34.037148
259.757538	1098.415649	4068.052490	2102.604736	33.815216
260.135162	1099.318970	4428.032715	2219.974121	33.666309
260.512665	1100.760010	4715.939453	2314.910400	33.584789
260.890228	1099.792114	4904.715332	2377.606445	33.583183
261.267700	1101.147095	5016.622070	2416.299561	33.588581
261.645142	1101.942871	5083.039063	2439.054932	33.586529
262.022552	1103.211914	5120.677734	2447.507813	33.461288
262.399994	1102.717285	5125.904297	2447.851807	33.434551
262.777313	1103.857178	5080.715820	2431.591553	33.386513
263.154602	1104.911011	4961.216309	2387.328125	33.255074
263.531921	1102.824707	4760.159180	2310.308350	33.015400
263.909149	1102.459106	4480.791504	2215.758789	32.954117
264.286377	1101.491333	4192.583984	2116.176270	32.826092
264.663574	1099.878174	3972.277100	2037.585815	32.645454
265.040710	1101.921509	3845.767090	1992.182495	32.445740
265.417816	1099.168457	3795.782227	1968.910889	32.253132
265.794891	1099.340576	3797.803955	1967.082520	32.156891
266.171936	1099.104004	3841.508057	1973.663696	31.890257
266.548950	1099.921265	3899.708740	1988.955933	31.753647
266.925934	1101.383789	3954.425049	2003.689331	31.626095
267.302887	1100.329834	4020.368896	2023.304565	31.608301
267.679810	1102.308594	4091.776367	2049.286377	31.677135
268.056671	1102.652710	4176.216797	2075.934814	31.666239
268.433502	1101.749512	4266.658203	2103.873535	31.663599
268.810333	1101.684814	4350.517578	2129.102539	31.624210
269.187073	1099.039429	4426.677734	2153.126709	31.676739
269.563843	1101.362305	4488.276855	2172.269043	31.618948
269.940521	1100.588013	4541.895996	2185.238525	31.518553
270.317200	1099.899780	4605.710449	2203.864502	31.489573
270.693848	1099.146973	4713.035645	2235.029541	31.431034
271.070435	1097.705933	4884.304199	2286.971680	31.407234
271.447021	1095.856323	5082.371582	2346.957520	31.383329
271.823547	1093.920532	5251.705078	2394.081787	31.270529
272.200043	1092.931152	5382.043457	2431.570313	31.210169
272.576538	1096.501465	5496.100098	2464.671143	31.097603
272.952972	1096.630493	5606.415527	2495.771729	31.024565
273.329346	1099.641602	5698.835449	2521.043457	30.905457
273.705688	1097.490723	5766.155762	2541.175049	30.922852
274.082062	1094.221558	5809.837891	2552.703369	30.928764
274.458344	1094.049438	5806.568848	2551.197754	30.920792
274.834595	1093.060059	5748.755371	2530.033936	30.864861
275.210846	1093.748413	5652.141113	2497.191162	30.788107
275.587006	1095.361572	5538.041016	2460.864258	30.736015
275.963165	1096.135864	5473.688965	2437.054932	30.631702
276.339294	1095.920898	5444.265625	2423.956299	30.541170
276.715393	1094.329224	5440.265137	2418.514648	30.469511
277.091461	1093.942017	5437.361816	2415.697266	30.431210
277.467438	1092.931152	5444.867676	2413.288086	30.339527
277.843445	1094.372192	5460.289551	2412.664551	30.195082
278.219452	1097.361816	5481.604004	2417.331787	30.107141
278.595337	1097.275757	5513.521484	2423.353760	30.027269
278.971191	1097.318726	5547.805664	2430.795654	29.962496
279.347046	1096.716553	5572.969727	2437.785645	29.959637
279.722870	1095.727051	5607.189453	2443.829834	29.881725
280.098663	1096.953125	5631.234863	2452.153320	29.887869
280.474396	1098.222168	5683.004883	2466.348633	29.840595
280.850098	1099.727539	5749.679688	2482.781006	29.743391
281.225800	1099.770630	5852.595703	2511.365234	29.700117
281.601440	1099.125488	5983.816895	2546.380127	29.628374
281.977051	1098.996338	6153.665527	2595.332520	29.603050
282.352600	1100.265503	6314.695801	2640.564209	29.539156
282.728149	1102.996948	6448.454590	2679.063232	29.484217
283.103668	1104.007935	6547.198242	2703.754395	29.389868
283.479156	1102.588379	6633.079590	2721.003906	29.263504
283.854553	1102.502319	6720.380859	2741.458008	29.173925
284.229950	1098.480347	6819.877930	2769.439941	29.205444
284.605347	1096.501587	6916.750000	2797.271240	29.221598
284.980652	1094.888428	7007.728516	2819.273926	29.163406
285.355988	1092.500977	7095.331055	2839.298096	29.099560
285.731201	1094.243042	7173.210938	2859.085449	29.031942
286.106445	1094.888428	7234.551758	2871.495850	28.936562
286.481659	1094.802368	7309.464355	2887.841797	28.851761
286.856781	1091.490112	7380.248047	2903.951416	28.820656
287.231934	1093.942017	7436.878418	2920.856689	28.802349
287.607025	1097.254272	7468.667480	2931.481689	28.788393
287.982056	1100.114868	7471.699707	2931.589111	28.744406
288.357086	1103.577637	7457.009766	2919.867188	28.587534
288.732086	1104.201294	7427.049805	2903.069336	28.450279
289.107025	1104.373413	7399.476563	2894.293945	28.433538
289.481934	1106.137085	7369.988770	2881.475342	28.342598
289.856842	1104.395020	7367.579590	2877.173584	28.304747
290.231659	1103.276611	7383.409668	2878.184570	28.262268
290.606506	1102.717407	7399.583984	2874.872314	28.143440
290.981262	1104.029419	7420.532715	2876.765137	28.065144
291.355988	1103.341064	7460.408203	2884.314209	28.015640
291.730713	1101.276245	7499.531250	2894.681152	28.029594
292.105377	1100.996582	7523.040527	2901.671143	28.038963
292.480011	1102.115112	7531.126953	2909.414063	28.111614
292.854614	1101.340698	7544.418945	2921.566406	28.250872
293.229187	1102.093628	7573.949707	2935.159180	28.323647
293.603729	1104.115356	7617.632324	2960.452881	28.499771
293.978241	1103.771240	7652.840332	2985.574219	28.733900
294.352692	1101.964478	7681.683105	3007.254150	28.957008
294.727081	1101.061035	7708.525391	3037.924805	29.313269
295.101501	1098.609253	7761.865234	3073.821777	29.643354
295.475830	1095.512085	7848.133301	3116.213867	29.924702
295.850189	1095.038940	7991.893555	3173.597412	30.137777
296.224457	1091.683716	8203.381836	3254.317139	30.409519
296.598694	1089.403809	8463.350586	3348.888184	30.641453
296.972931	1089.016602	8729.597656	3445.953857	30.847618
297.347107	1088.586426	8935.946289	3530.415771	31.116571
297.721283	1087.898071	9061.037109	3583.411621	31.299011
298.095367	1089.769409	9098.051758	3608.683350	31.453863
298.469452	1092.737427	9080.931641	3621.286865	31.653578
298.843475	1092.199707	9037.636719	3618.555664	31.796312
299.217529	1094.587158	8972.337891	3611.458008	31.949104
299.591492	1096.436890	8892.672852	3596.703369	32.070175
299.965424	1098.135864	8774.442383	3568.076416	32.176155
300.339325	1102.179565	8594.958008	3520.608398	32.276794
300.713196	1103.513062	8374.263672	3459.159912	32.398952
301.087036	1105.448730	8138.126465	3390.204834	32.487713
301.460815	1104.975586	7937.585938	3329.853760	32.562637
301.834564	1103.771118	7774.533203	3281.933594	32.652378
302.208282	1103.125854	7649.119141	3240.487549	32.651451
302.582001	1103.297974	7531.814453	3201.579590	32.640217
302.955658	1103.297974	7423.306641	3167.468018	32.660870
303.329254	1100.889038	7332.241699	3135.356201	32.648884
303.702820	1101.276245	7248.747070	3109.460205	32.666832
304.076416	1100.910645	7176.007813	3088.683594	32.720020
304.449921	1099.491089	7122.452637	3067.261719	32.671146
304.823395	1099.749146	7062.165527	3047.947510	32.674644
305.196838	1099.426636	7003.878418	3027.385742	32.652637
305.570251	1097.921021	6932.858887	2999.791260	32.594524
305.943604	1096.479980	6870.485840	2977.659424	32.580143
306.316986	1096.350952	6825.146973	2965.485596	32.627007
306.690277	1094.759399	6800.218750	2954.430664	32.594593
307.063507	1094.200073	6800.971680	2952.000000	32.554306
307.436768	1095.038940	6830.372070	2959.614258	32.510323
307.809937	1092.328979	6880.078125	2974.218262	32.515045
308.183136	1093.081665	6951.484375	2992.758057	32.426525
308.556244	1091.640747	7039.259277	3019.277588	32.410229
308.929321	1092.802002	7145.702637	3051.217285	32.354988
309.302399	1091.963379	7244.488770	3079.414063	32.303005
309.675446	1093.597778	7353.104492	3111.761963	32.241585
310.048401	1095.167969	7449.568359	3141.120850	32.197418
310.421356	1093.662354	7553.624512	3169.941162	32.140728
310.794281	1094.049438	7670.606445	3205.816406	32.110527
311.167145	1096.264771	7784.168945	3234.874023	31.977272
311.539978	1100.437378	7864.242676	3252.983643	31.824488
311.912781	1102.588135	7910.098145	3262.382813	31.726648
312.285553	1101.147095	7899.667480	3259.651367	31.749620
312.658295	1102.308472	7851.940430	3243.498535	31.723063
313.031006	1101.254639	7786.728027	3218.699951	31.672331
313.403656	1101.792358	7728.354980	3196.438965	31.609850
313.776276	1101.663208	7684.435547	3185.555664	31.656761
314.148865	1102.029053	7688.415527	3179.942383	31.548609
314.521454	1105.040161	7694.351563	3179.662598	31.484663
314.893982	1103.147583	7677.596680	3171.360840	31.458351
315.266449	1101.018311	7620.212891	3156.541992	31.530333
315.638885	1095.899292	7539.772949	3133.657227	31.623182
316.011322	1094.544189	7452.429199	3105.331055	31.626665
316.383667	1094.759277	7385.065430	3079.263184	31.548607
316.756042	1094.458130	7327.316895	3061.389893	31.557457
317.128326	1094.049561	7277.848145	3043.796631	31.529924
317.500610	1094.329102	7220.959473	3026.202881	31.532404
317.872833	1094.157104	7145.443848	2994.004883	31.395765
318.245087	1094.608643	7047.453613	2966.345947	31.442738
318.617218	1093.468872	6948.925293	2933.911865	31.431246
318.989319	1094.780762	6877.604980	2907.478516	31.346237
319.361420	1097.684448	6835.212402	2892.186279	31.276569
319.733490	1100.889160	6807.423828	2880.786865	31.190517
320.105530	1099.792114	6786.690430	2871.387695	31.152227
320.477509	1100.566528	6764.343750	2865.860352	31.168137
320.849457	1101.512817	6742.125488	2856.310791	31.110060
321.221375	1099.899780	6731.974609	2851.299561	31.096886
321.593231	1100.200806	6729.565430	2848.632568	31.059132
321.965088	1100.802979	6731.823242	2852.611572	31.109966
322.336884	1102.459106	6746.857422	2850.826416	30.975264
322.708618	1100.265381	6786.432617	2858.870361	30.927776
323.080414	1101.254761	6844.159668	2876.851074	30.918087
323.452118	1102.179565	6947.871582	2902.122803	30.790936
323.823761	1099.899658	7085.007324	2941.246094	30.765471
324.195343	1102.846313	7229.239258	2982.843018	30.686844
324.566925	1101.061035	7372.160645	3021.557129	30.624552
324.938507	1099.189941	7509.081055	3059.540527	30.583212
325.310059	1099.964355	7620.814453	3091.888428	30.546999
325.681519	1099.663208	7736.399902	3126.753174	30.543474
326.052948	1098.802856	7852.091797	3154.649170	30.442146
326.424408	1094.458130	7916.723145	3179.791992	30.566593
326.795776	1097.275757	7936.703613	3185.362549	30.530140
327.167084	1095.705688	7906.787109	3175.382568	30.533722
327.538391	1093.490356	7825.529785	3149.486816	30.540470
327.909668	1095.296997	7721.903320	3115.568604	30.487272
328.280884	1095.813232	7621.073730	3080.768799	30.419559
328.652100	1096.802734	7529.922363	3050.442383	30.368464
329.023254	1097.856445	7453.332520	3024.375000	30.312735
329.394348	1098.200562	7390.443359	3002.823486	30.269381
329.765442	1097.834839	7310.196777	2975.615967	30.226526
330.136475	1098.351074	7226.937988	2950.601807	30.223129
330.507538	1099.878174	7159.510742	2925.523682	30.127989
330.878479	1097.619873	7106.687500	2911.177979	30.180359
331.249420	1098.673706	7078.705078	2901.542236	30.148146
331.620331	1097.168091	7080.082520	2902.101318	30.168127
331.991211	1096.092896	7099.223633	2908.790527	30.195871
332.362030	1094.716309	7135.120605	2921.200684	30.237783
332.732819	1093.877441	7177.190430	2934.643066	30.259262
333.103577	1092.888184	7218.851074	2951.634521	30.342110
333.474304	1093.103271	7245.328125	2963.571289	30.403116
333.845001	1093.103271	7266.728516	2971.937988	30.433250
334.215668	1095.318481	7282.107422	2977.809814	30.427599
334.586273	1096.221802	7310.819824	2988.370117	30.446833
334.956818	1097.490845	7336.048340	2997.618652	30.457806
335.327362	1096.437012	7358.523926	3007.985840	30.525747
335.697876	1099.534058	7373.127930	3013.556152	30.509182
336.068329	1099.964355	7380.677734	3016.846924	30.520142
336.438751	1099.964233	7374.892578	3018.868652	30.580500
336.809174	1103.233521	7369.923828	3021.019287	30.602848
337.179504	1103.018433	7381.000000	3026.202881	30.633802
337.549896	1103.469971	7413.283203	3033.967285	30.595156
337.920135	1105.814331	7465.849609	3047.947754	30.536520
338.290375	1104.115234	7520.394043	3066.939209	30.591314
338.660614	1103.835815	7566.679688	3079.349365	30.567249
339.030792	1104.975708	7605.523438	3089.071045	30.521971
339.400940	1107.556641	7646.431152	3097.695557	30.435497
339.771027	1106.309204	7679.596680	3109.353027	30.472481
340.141083	1106.825317	7714.590820	3122.494385	30.504549
340.511139	1107.965210	7751.798828	3132.624756	30.474266
340.881134	1105.642456	7796.600098	3145.788086	30.491087
341.251068	1105.599243	7825.829590	3152.519531	30.459078
341.621002	1104.373291	7840.841797	3159.079590	30.501238
341.990875	1101.233154	7849.101563	3160.950928	30.523977
342.360718	1099.964233	7858.995117	3160.499268	30.485661
342.730560	1100.136230	7879.062012	3167.575195	30.498032
343.100311	1097.834961	7921.325195	3182.415771	30.550066
343.470032	1097.383301	7984.279297	3204.268066	30.592661
343.839752	1097.125122	8068.074707	3228.937744	30.581379
344.209442	1098.028564	8161.526855	3256.403809	30.556747
344.579041	1096.523071	8264.938477	3290.881104	30.611477
344.948639	1095.813232	8365.853516	3321.573242	30.615513
345.318176	1098.845825	8455.262695	3353.426025	30.647802
345.687714	1098.286621	8552.909180	3382.031982	30.635292
346.057190	1098.200562	8625.068359	3408.960205	30.700151
346.426636	1100.136230	8678.581055	3430.811768	30.754007
346.796051	1099.297363	8703.013672	3438.081787	30.758438
347.165405	1099.985596	8698.797852	3434.253906	30.718857
347.534729	1099.598633	8657.610352	3425.263184	30.770851
347.904083	1099.770752	8593.752930	3407.992188	30.800999
348.273315	1099.211426	8511.786133	3386.290527	30.854044
348.642517	1099.491089	8436.227539	3365.814941	30.890079
349.011719	1099.749146	8361.422852	3345.876709	30.931263
349.380890	1096.781006	8308.834961	3327.767334	30.934134
349.749969	1097.942505	8260.614258	3318.604736	31.003265
350.119049	1101.147217	8238.375977	3314.152588	31.006508
350.488098	1102.308716	8235.384766	3311.356934	30.969084
350.857117	1103.534668	8238.632813	3318.088379	31.037466
351.226074	1102.179565	8268.012695	3333.445313	31.137562
351.595001	1102.910889	8313.008789	3346.737549	31.120613
351.963867	1102.910889	8365.336914	3368.030518	31.189573
352.332764	1099.813721	8432.206055	3390.506348	31.240725
352.701538	1099.146973	8501.246094	3413.906982	31.271669
353.070343	1100.738525	8591.322266	3441.351563	31.247404
353.439056	1100.867676	8685.075195	3475.161865	31.305765
353.807770	1101.233276	8792.744141	3508.542725	31.298267
354.176453	1100.243896	8898.822266	3540.739258	31.294107
354.545105	1096.781128	9022.581055	3582.981445	31.368446
354.913666	1096.931641	9173.868164	3635.074219	31.424570
355.282227	1098.652344	9334.511719	3689.317139	31.455914
355.650757	1095.770264	9501.285156	3743.926025	31.504980
356.019226	1095.899292	9686.339844	3802.385010	31.505787
356.387695	1097.275757	9897.461914	3872.909912	31.540630
356.756104	1097.727417	10147.257813	3953.844482	31.560944
357.124451	1096.458496	10424.130859	4045.640869	31.617561
357.492828	1095.856201	10681.905273	4129.156738	31.642866
357.861084	1096.716553	10896.963867	4201.703613	31.682743
358.229401	1096.436890	11065.134766	4262.614258	31.761190
358.597595	1100.028687	11179.878906	4302.770020	31.773697
358.965759	1098.308105	11285.785156	4335.053223	31.771805
359.333923	1097.576904	11397.927734	4369.487793	31.765043
359.702057	1099.770630	11556.829102	4426.204102	31.810413
360.070129	1098.329590	11736.874023	4489.007813	31.871635
360.438141	1100.695435	11947.889648	4558.757813	31.879787
360.806122	1102.717163	12195.875977	4644.489746	31.927536
361.174133	1104.502441	12475.975586	4745.598633	32.019566
361.542053	1106.201660	12787.734375	4851.956055	32.065605
361.909912	1104.782104	13059.295898	4942.246582	32.100548
362.277771	1104.072266	13289.452148	5014.234375	32.088963
362.645599	1102.523560	13435.535156	5066.154785	32.138390
363.013367	1101.684937	13487.328125	5083.275391	32.146820
363.381134	1101.878540	13454.527344	5080.113281	32.205521
363.748810	1100.824707	13341.522461	5043.657227	32.210850
364.116455	1101.792480	13151.778320	4984.790039	32.224083
364.484100	1100.136353	12877.100586	4899.683105	32.262531
364.851715	1097.426270	12500.042969	4776.420410	32.264473
365.219238	1095.641113	12017.209961	4616.034668	32.233406
365.586761	1094.071167	11496.714844	4448.207520	32.243114
365.954224	1092.587036	11045.755859	4304.684082	32.272106
366.321686	1092.113770	10687.518555	4194.347656	32.330414
366.689117	1093.275269	10452.758789	4117.542480	32.312328
367.056458	1096.824097	10290.286133	4072.805664	32.370628
367.423737	1097.533936	10172.636719	4032.671875	32.342751
367.791077	1098.630859	10063.891602	3995.635010	32.313663
368.158295	1099.362061	9978.162109	3963.480225	32.257942
368.525543	1099.899658	9899.936523	3932.960205	32.193733
368.892700	1102.222534	9826.788086	3908.592041	32.166298
369.259827	1103.233521	9775.147461	3891.988037	32.158463
369.626953	1104.567017	9742.949219	3879.943115	32.128426
369.994019	1105.083130	9712.256836	3872.350830	32.150711
370.361053	1105.814453	9696.125977	3867.425781	32.147976
370.728027	1104.201294	9690.146484	3864.543213	32.149540
371.094971	1102.545166	9704.665039	3865.403809	32.118347
371.461914	1099.792114	9732.152344	3873.641357	32.133148
371.828796	1099.964355	9764.951172	3888.288330	32.179207
372.195618	1099.383545	9808.225586	3902.913818	32.191769
372.562408	1099.598633	9839.046875	3916.183838	32.228409
372.929199	1098.867310	9875.116211	3931.648682	32.277813
373.295898	1096.544434	9908.454102	3946.596924	32.343185
373.662598	1097.576782	9953.125977	3960.942871	32.334148
374.029236	1098.093018	9996.227539	3971.481201	32.292027
374.395844	1098.802856	10033.027344	3984.622559	32.300732
374.762421	1100.566528	10077.097656	4000.000732	32.300163
375.128967	1099.555542	10134.545898	4017.228760	32.293045
375.495483	1103.448608	10215.415039	4039.941406	32.226772
375.861908	1101.125854	10344.572266	4080.204590	32.229092
376.228333	1100.609497	10513.862305	4138.061035	32.267822
376.594727	1098.265137	10751.439453	4221.103516	32.350380
376.961090	1097.770386	11016.181641	4306.619141	32.352448
377.327393	1101.211792	11269.352539	4390.285645	32.346855
377.693665	1099.620117	11461.527344	4457.111328	32.402252
378.059906	1100.243896	11601.781250	4504.687500	32.418526
378.426086	1101.190186	11685.490234	4533.207031	32.425545
378.792267	1100.781494	11717.967773	4549.488281	32.482304
379.158386	1100.200806	11706.439453	4554.134277	32.565113
379.524445	1098.006958	11674.457031	4554.414063	32.680222
379.890503	1099.964233	11605.610352	4537.573242	32.721535
380.256531	1100.996582	11494.047852	4512.215332	32.822113
380.622467	1102.953857	11331.468750	4461.843262	32.838486
380.988403	1103.255005	11130.669922	4404.158203	32.918785
381.354279	1101.104126	10936.257813	4345.011230	32.982784
381.720154	1099.426636	10784.260742	4305.888184	33.108067
382.085968	1100.738525	10692.442383	4283.778320	33.185341
382.451752	1099.491089	10663.148438	4283.369141	33.291428
382.817474	1100.028809	10677.924805	4298.575684	33.395088
383.183197	1101.512939	10747.503906	4328.299805	33.452103
383.548859	1101.211792	10817.749023	4361.228516	33.551220
383.914490	1099.491211	10895.329102	4396.910645	33.661434
384.280060	1099.276123	10966.520508	4427.559570	33.730629
384.645599	1098.802856	11036.163086	4460.810547	33.832001
385.011108	1096.781128	11120.754883	4498.255859	33.933395
385.376617	1095.426147	11219.089844	4543.702637	34.061546
385.742035	1095.684082	11332.500977	4584.009277	34.076271
386.107452	1093.361328	11437.826172	4633.047363	34.218166
386.472778	1093.210815	11530.417969	4675.353516	34.320892
386.838135	1090.823364	11626.559570	4718.455566	34.431694
387.203430	1090.328735	11692.825195	4750.717773	34.523842
387.568634	1089.446777	11741.561523	4781.129883	34.656807
387.933838	1091.296509	11771.308594	4807.154785	34.792645
388.299042	1091.855713	11806.624023	4835.997070	34.943745
388.664124	1089.403809	11833.939453	4859.139648	35.085144
389.029236	1092.931152	11843.661133	4879.937988	35.225578
389.394318	1094.114136	11856.931641	4899.316406	35.355076
389.759308	1094.157104	11859.254883	4920.609863	35.544987
390.124298	1094.415161	11897.474609	4951.043457	35.699409
390.489227	1096.178833	11985.441406	4992.339355	35.779839
390.854126	1096.350830	12100.639648	5055.981445	35.982613
391.218964	1097.748901	12246.528320	5131.840332	36.184151
391.583771	1097.641479	12404.568359	5206.602051	36.340206
391.948578	1094.372192	12542.930664	5276.524902	36.529949
392.313354	1092.436401	12655.502930	5330.122559	36.648464
392.678040	1094.522705	12759.365234	5386.387207	36.793159
393.042694	1091.554565	12871.121094	5447.233887	36.976566
393.407349	1093.705322	12997.244141	5513.844238	37.132980
393.771942	1094.630371	13137.218750	5588.326660	37.315037
394.136505	1093.985107	13233.640625	5646.011230	37.497162
394.501007	1091.145996	13250.416016	5680.058105	37.740032
394.865479	1092.113770	13191.269531	5673.390625	37.864433
395.229919	1090.715820	13059.208984	5645.193848	38.053898
395.594360	1094.264771	12900.953125	5609.038574	38.239120
395.958710	1098.007080	12755.558594	5569.916016	38.360619
396.323029	1098.953491	12622.725586	5543.267090	38.566483
396.687286	1099.254517	12495.181641	5514.790527	38.746616
397.051544	1100.932129	12373.447266	5483.732910	38.880413
397.415771	1098.888794	12218.524414	5439.534180	39.035862
397.779938	1099.426636	12045.384766	5390.689453	39.204086
398.144043	1100.803101	11876.718750	5342.361328	39.361462
398.508148	1099.383545	11731.345703	5308.851563	39.592579
398.872192	1099.039429	11617.761719	5281.901855	39.765877
399.236237	1099.297485	11542.204102	5270.976074	39.947487
399.600189	1097.060669	11490.456055	5261.749023	40.070530
399.964111	1095.920776	11451.311523	5262.222168	40.233162
400.328003	1094.866943	11420.555664	5264.244141	40.378681
400.691925	1093.081787	11410.338867	5274.761230	40.530926
401.055695	1093.554932	11395.217773	5288.483398	40.720890
401.419495	1093.404297	11390.186523	5306.399414	40.915646
401.783234	1092.522583	11416.532227	5325.003418	40.996483
402.146942	1093.490356	11432.211914	5348.275391	41.153881
402.510620	1096.071167	11475.981445	5376.214355	41.234875
402.874237	1096.910034	11545.322266	5420.822266	41.383438
403.237823	1097.942505	11646.604492	5477.323730	41.515987
403.601379	1097.899536	11783.717773	5552.709473	41.688992
403.964874	1097.598389	11953.416016	5640.290527	41.845695
404.328369	1098.845825	12137.160156	5730.280762	41.957809
404.691772	1101.899902	12298.964844	5822.441895	42.158745
405.055176	1100.394409	12461.372070	5900.494141	42.250763
405.418549	1100.760010	12608.122070	5973.212891	42.342049
405.781860	1100.953613	12710.436523	6038.210449	42.527794
406.145142	1100.372925	12804.383789	6091.829590	42.647404
406.508362	1096.910034	12858.259766	6133.448242	42.822792
406.871552	1096.071289	12872.971680	6160.548340	43.003479
407.234741	1095.533569	12855.744141	6161.924805	43.080784
407.597870	1096.286377	12795.436523	6149.105957	43.189625
407.960938	1099.082397	12714.909180	6133.728027	43.342979
408.323975	1098.759766	12628.490234	6114.886230	43.506016
408.686981	1099.318970	12567.297852	6100.433105	43.609379
409.049957	1099.405029	12529.293945	6098.154297	43.734013
409.412903	1100.050293	12531.552734	6120.543457	43.918053
409.775787	1099.942749	12562.309570	6154.375488	44.095890
410.138611	1100.652466	12608.766602	6191.153320	44.234016
410.501434	1103.900269	12662.795898	6232.836426	44.372200
410.864227	1104.609985	12703.165039	6264.668945	44.488811
411.226929	1104.502441	12739.277344	6299.898438	44.654030
411.589630	1104.696045	12787.863281	6333.559082	44.755531
411.952271	1103.835815	12802.446289	6354.679688	44.884338
412.314911	1103.083008	12808.704102	6372.853516	45.019146
412.677490	1101.577393	12819.889648	6380.231445	45.046200
413.040009	1104.545532	12832.342773	6394.921387	45.109718
413.402496	1102.523682	12817.157227	6392.684570	45.158569
413.764984	1102.652832	12790.637695	6379.585938	45.148357
414.127380	1100.953613	12777.344727	6378.123535	45.195217
414.489777	1100.329956	12783.412109	6379.005859	45.182220
414.852112	1101.104248	12831.394531	6398.556641	45.160454
415.214386	1100.932129	12908.696289	6429.937012	45.131363
415.576660	1100.222290	13008.063477	6477.232422	45.155209
415.938904	1098.695190	13161.844727	6539.757324	45.104820
416.301086	1101.211792	13343.672852	6618.733887	45.068733
416.663208	1101.512817	13534.774414	6706.314453	45.079094
417.025299	1097.964111	13747.102539	6801.573730	45.090893
417.387390	1097.641479	13993.647461	6914.706543	45.107494
417.749420	1097.383301	14281.855469	7054.443848	45.182396
418.111389	1097.576904	14608.261719	7199.343750	45.162529
418.473328	1096.738037	14982.374023	7371.235840	45.186970
418.835266	1094.673340	15378.788086	7556.592285	45.238495
419.197144	1096.781128	15816.389648	7755.391113	45.236324
419.558960	1096.092896	16293.288086	7983.181641	45.318157
419.920746	1095.684204	16814.921875	8234.266602	45.413033
420.282471	1095.899292	17418.888672	8516.561523	45.461418
420.644226	1094.608887	18049.289063	8820.190430	45.566071
421.005920	1092.393433	18652.761719	9115.215820	45.687092
421.367523	1092.909668	19205.388672	9385.120117	45.781757
421.729126	1092.436401	19689.105469	9614.998047	45.828426
422.090668	1091.640503	20103.029297	9826.680664	45.946354
422.452179	1092.414917	20437.283203	10006.165039	46.078110
422.813660	1092.156860	20766.935547	10180.574219	46.193233
423.175110	1089.382324	21078.695313	10357.885742	46.367298
423.536469	1089.016724	21354.472656	10507.280273	46.474476
423.897858	1088.328369	21574.929688	10631.576172	46.582874
424.259155	1086.242065	21651.544922	10702.250977	46.758411
424.620453	1086.134644	21666.791016	10737.030273	46.893040
424.981689	1091.188965	21630.486328	10752.299805	47.037205
425.342865	1092.092285	21562.048828	10747.545898	47.168900
425.704041	1091.769653	21472.617188	10740.254883	47.340942
426.065186	1093.769775	21369.960938	10713.112305	47.441566
426.426239	1094.565674	21230.953125	10670.247070	47.554119
426.787262	1096.522949	20996.988281	10584.127930	47.675297
427.148254	1096.888672	20678.130859	10453.360352	47.782829
427.509216	1098.028442	20293.246094	10286.758789	47.869896
427.870178	1098.222046	19842.652344	10088.519531	47.962505
428.231049	1097.942383	19410.876953	9884.300781	47.978977
428.591858	1100.179321	18984.113281	9677.758789	47.962486
428.952698	1098.910278	18575.439453	9479.347656	47.952526
429.313446	1099.189941	18204.597656	9297.259766	47.926773
429.674164	1101.985962	17855.242188	9124.528320	47.886467
430.034851	1101.147217	17533.355469	8977.586914	47.932930
430.395477	1100.244019	17253.707031	8835.631836	47.886871
430.756104	1099.297607	17029.400391	8726.564453	47.879581
431.116699	1097.297241	16851.013672	8634.402344	47.843346
431.477203	1095.727295	16712.544922	8566.609375	47.838696
431.837646	1097.318848	16644.773438	8539.037109	47.864544
432.198090	1098.243652	16616.832031	8533.099609	47.909359
432.558502	1095.619629	16627.585938	8555.252930	48.027615
432.918884	1095.641113	16653.998047	8585.859375	48.142731
433.279205	1094.049561	16710.177734	8634.940430	48.289120
433.639465	1093.533325	16786.314453	8696.238281	48.447147
433.999756	1095.060425	16865.056641	8754.632813	48.570541
434.359924	1097.211182	16953.216797	8818.619141	48.697056
434.720093	1097.899536	17034.044922	8876.024414	48.808071
435.080200	1099.641602	17095.513672	8933.945313	48.977036
435.440277	1101.211670	17160.146484	8986.274414	49.100780
435.800354	1099.275879	17185.830078	9027.591797	49.285358
436.160370	1097.340210	17192.820313	9056.907227	49.452187
436.520325	1099.189819	17192.820313	9091.191406	49.659405
436.880249	1098.265137	17205.078125	9122.011719	49.815857
437.240112	1098.050171	17215.617188	9145.520508	49.929806
437.599976	1098.265137	17262.482422	9187.396484	50.043449
437.959808	1097.662964	17333.457031	9246.822266	50.192551
438.319519	1096.350952	17413.857422	9315.993164	50.373154
438.679260	1091.145996	17536.646484	9410.003906	50.584400
439.038940	1092.586914	17707.978516	9530.083984	50.781216
439.398590	1092.414795	17931.275391	9676.596680	50.978397
439.758179	1092.866577	18226.859375	9850.038086	51.109932
440.117767	1095.124878	18574.494141	10056.278320	51.267029
440.477295	1095.490601	18934.453125	10265.035156	51.401783
440.836792	1095.920776	19279.357422	10467.383789	51.538456
441.196198	1098.867310	19575.050781	10653.536133	51.713432
441.555603	1098.544800	19804.392578	10797.532227	51.850029
441.914978	1098.265137	19959.164063	10907.050781	52.005928
442.274323	1098.738403	20082.167969	10989.834961	52.103844
442.633575	1103.728149	20140.388672	11050.378906	52.249977
442.992859	1103.685181	20138.429688	11075.372070	52.386765
443.352051	1103.384033	20087.412109	11070.833008	52.504398
443.711182	1105.491943	19969.117188	11028.699219	52.604984
444.070313	1103.921753	19825.337891	10984.113281	52.774807
444.429382	1103.771240	19678.630859	10922.793945	52.861893
444.788452	1103.448608	19573.458984	10891.649414	52.995106
445.147430	1101.641968	19542.746094	10898.124023	53.123081
445.506409	1097.963989	19594.320313	10942.968750	53.226727
445.865295	1094.264771	19736.939453	11038.636719	53.341984
446.224182	1092.888184	19956.279297	11176.222656	53.454514
446.583038	1093.899048	20226.097656	11329.489258	53.499287
446.941833	1092.630005	20505.294922	11492.112305	53.570610
447.300598	1093.597778	20762.875000	11651.292969	53.676071
447.659302	1091.877197	20991.054688	11794.901367	53.786266
448.018005	1093.791504	21158.558594	11889.106445	53.802341
448.376648	1093.597900	21260.806641	11965.568359	53.909149
448.735229	1096.652100	21288.230469	11989.484375	53.947403
449.093781	1098.157715	21246.203125	11982.128906	54.019985
449.452301	1100.308350	21122.595703	11935.071289	54.113510
449.810791	1103.577759	20923.970703	11834.865234	54.142658
450.169220	1103.900269	20623.998047	11690.136719	54.232498
450.527618	1102.373169	20295.289063	11524.246094	54.300625
450.885956	1103.706665	20003.423828	11375.195313	54.347313
451.244263	1103.771118	19716.507813	11237.457031	54.444901
451.602539	1104.781982	19494.673828	11125.766602	54.491806
451.960785	1104.480835	19310.414063	11036.593750	54.554264
452.318970	1108.094238	19172.310547	10966.671875	54.575176
452.677124	1104.609863	19023.412109	10903.996094	54.687733
453.035248	1104.222778	18869.242188	10828.459961	54.738117
453.393311	1105.599243	18696.167969	10748.902344	54.820869
453.751312	1104.695923	18529.070313	10666.203125	54.874317
454.109314	1107.212402	18388.814453	10598.172852	54.919453
454.467285	1109.169800	18245.613281	10527.519531	54.960938
454.825195	1108.739502	18072.367188	10444.670898	55.034996
455.183044	1109.943848	17904.023438	10355.863281	55.054638
455.540894	1106.545654	17691.955078	10250.410156	55.131977
455.898651	1106.674683	17504.232422	10157.795898	55.197979
456.256378	1101.856934	17306.982422	10054.212891	55.243977
456.614105	1103.061401	17179.052734	9984.247070	55.245026
456.971771	1104.050781	17093.775391	9949.231445	55.317905
457.329407	1101.749512	17093.128906	9946.714844	55.310833
457.686981	1101.684814	17167.417969	10000.980469	55.393024
458.044525	1099.598633	17346.685547	10108.951172	55.452110
458.402008	1099.189941	17633.281250	10276.261719	55.503941
458.759460	1098.458618	18066.625000	10521.044922	55.530964
459.116913	1096.329468	18630.761719	10837.342773	55.553631
459.474274	1098.286621	19308.283203	11212.571289	55.542488
459.831635	1098.630859	19928.597656	11570.788086	55.614315
460.188904	1098.738403	20480.904297	11890.032227	55.676407
460.546173	1098.587769	20918.871094	12151.806641	55.767208
460.903381	1097.684448	21253.000000	12331.312500	55.735310
461.260559	1098.093262	21482.876953	12458.875977	55.731686
461.617706	1101.082764	21610.376953	12533.467773	55.742455
461.974762	1100.803101	21586.716797	12518.862305	55.736149
462.331848	1099.017822	21431.537109	12440.358398	55.779320
462.688843	1099.856812	21097.753906	12258.894531	55.801060
463.045837	1099.856812	20608.511719	11989.078125	55.817390
463.402740	1100.028931	20001.488281	11664.950195	55.894737
463.759613	1098.759888	19425.611328	11340.416016	55.883339
464.116486	1099.017944	18915.269531	11062.681641	55.924580
464.473267	1100.222290	18506.187500	10829.599609	55.896797
464.830048	1099.899658	18187.908203	10656.825195	55.927677
465.186737	1101.491333	17932.179688	10529.498047	56.016766
465.543457	1098.910522	17749.082031	10430.667969	56.046017
465.900085	1096.135864	17683.847656	10401.288086	56.096664
466.256683	1093.877563	17708.130859	10412.472656	56.087952
466.613251	1093.081665	17779.880859	10462.500977	56.148689
466.969757	1092.156738	17868.923828	10526.659180	56.235516
467.326233	1092.974121	17954.439453	10577.762695	56.251274
467.682678	1093.468750	18007.349609	10616.456055	56.302792
468.039093	1094.329102	18032.878906	10634.585938	56.322746
468.395416	1091.554688	18023.759766	10631.488281	56.341946
468.751740	1089.511353	18002.896484	10632.608398	56.423340
469.108032	1089.511353	17967.236328	10620.025391	56.468002
469.464233	1089.877075	17925.876953	10598.905273	56.480331
469.820435	1095.770264	17833.671875	10556.749023	56.524277
470.176575	1097.533936	17685.136719	10488.095703	56.611923
470.532715	1099.340576	17518.494141	10402.214844	56.658669
470.888763	1103.470093	17376.755859	10329.688477	56.695488
471.244751	1103.190430	17260.076172	10275.358398	56.769405
471.600769	1103.534668	17199.617188	10252.324219	56.838608
471.956696	1104.029297	17199.033203	10264.217773	56.913242
472.312592	1104.717651	17266.589844	10319.750977	57.017117
472.668457	1105.964966	17356.882813	10393.266602	57.149399
473.024292	1107.126465	17486.939453	10481.987305	57.234241
473.380035	1106.954468	17572.779297	10559.178711	57.405109
473.735779	1106.007935	17660.789063	10627.532227	57.515255
474.091492	1104.953979	17747.638672	10691.281250	57.600842
474.447113	1102.179565	17866.193359	10775.829102	57.704853
474.802765	1098.394165	17964.505859	10853.323242	57.837448
475.158295	1098.587769	18087.423828	10945.721680	57.962379
475.513824	1099.491089	18213.548828	11041.196289	58.090866
475.869324	1098.114624	18362.341797	11147.123047	58.207119
476.224762	1098.781372	18489.732422	11250.727539	58.374878
476.580170	1100.007202	18638.607422	11356.805664	58.481289
476.935516	1099.082397	18791.574219	11483.272461	58.692638
477.290863	1099.469604	19031.796875	11647.874023	58.823395
477.646118	1096.867065	19283.615234	11823.077148	58.978165
478.001373	1097.533936	19573.435547	12030.092773	59.171986
478.356537	1098.609253	19855.857422	12227.235352	59.329739
478.711700	1100.501953	20156.970703	12438.337891	59.495995
479.066833	1099.254395	20462.707031	12645.545898	59.629295
479.421875	1097.555298	20789.414063	12874.649414	59.806915
479.776917	1098.544678	21111.562500	13106.978516	60.003113
480.131897	1098.222046	21482.617188	13364.860352	60.176617
480.486847	1097.146606	21913.056641	13666.102539	60.381485
480.841766	1098.781372	22435.853516	14018.360352	60.549915
481.196594	1098.953491	23050.208984	14432.002930	60.739349
481.551453	1098.093262	23857.900391	14970.005859	60.949165
481.906219	1095.211060	24897.945313	15664.866211	61.210007
482.260986	1094.479736	26347.199219	16626.554688	61.506546
482.615662	1092.135254	28416.939453	18007.974609	61.906536
482.970306	1093.640991	31148.205078	19924.146484	62.654396
483.324951	1093.619385	34243.640625	22265.595703	63.867161
483.679504	1092.673096	37399.925781	24744.439453	65.143364
484.034027	1092.113892	40339.859375	26987.148438	65.978401
484.388519	1091.597656	42912.027344	28862.630859	66.405426
484.742981	1089.898560	45000.953125	30355.398438	66.647224
485.097351	1088.586426	46633.558594	31522.250000	66.821129
485.451721	1092.759033	47805.765625	32398.744141	67.017700
485.806030	1096.501465	48616.898438	33047.429688	67.236237
486.160309	1096.114258	49095.046875	33497.503906	67.504395
486.514557	1098.135986	49099.496094	33644.964844	67.803970
486.868744	1098.265137	48648.539063	33440.531250	68.016991
487.222931	1097.856567	47882.898438	32855.191406	67.879242
487.577026	1099.168579	46976.785156	32093.054688	67.557755
487.931122	1100.071777	46097.984375	31460.523438	67.470795
488.285126	1101.964478	45262.703125	30963.986328	67.621201
488.639099	1103.642090	44510.371094	30582.326172	67.912704
488.993042	1103.706543	43848.421875	30287.751953	68.275215
489.346954	1101.727905	43273.769531	30048.542969	68.639824
489.700836	1102.609741	42718.285156	29823.757813	69.015213
490.054626	1103.233521	42111.195313	29552.523438	69.375038
490.408417	1100.889160	41562.910156	29335.437500	69.780373
490.762146	1102.093628	41075.882813	29156.406250	70.181770
491.115814	1103.491577	40714.914063	29103.712891	70.687241
491.469513	1103.599121	40368.914063	29051.857422	71.177979
491.823090	1102.007324	39915.222656	28897.408203	71.613235
492.176666	1101.813965	39426.257813	28700.781250	72.014000
492.530182	1100.609375	38929.359375	28511.060547	72.459312
492.883698	1099.813721	38390.558594	28285.226563	72.901230
493.237091	1099.017944	37800.746094	28001.707031	73.300880
493.590515	1099.232910	37121.738281	27633.210938	73.659454
493.943878	1098.243652	36263.609375	27159.474609	74.110504
494.297150	1101.233276	35105.378906	26440.244141	74.517418
494.650452	1100.630981	33647.519531	25493.976563	74.948318
495.003662	1100.093262	31910.638672	24305.462891	75.316322
495.356873	1099.792114	30217.744141	23159.773438	75.760757
495.710022	1100.028687	28792.429688	22215.330078	76.249443
496.063110	1098.329590	27677.992188	21542.388672	76.916168
496.416168	1098.867188	26896.216797	21086.179688	77.478165
496.769165	1100.544922	26366.167969	20818.406250	78.042252
497.122162	1100.286865	26053.806641	20709.060547	78.581192
497.475098	1100.566528	25846.599609	20676.669922	79.108047
497.828003	1100.803223	25765.664063	20719.919922	79.542786
498.180847	1099.190063	25726.951172	20803.931641	80.010284
498.533661	1096.479980	25654.445313	20852.130859	80.444984
498.886444	1097.598267	25577.039063	20897.576172	80.884109
499.239136	1096.221802	25444.720703	20886.437500	81.278999
499.591827	1097.727417	25234.654297	20805.566406	81.650162
499.944427	1098.222168	24928.873047	20640.835938	82.006210
500.297089	1096.243286	24563.923828	20434.230469	82.402634
500.649628	1095.899292	24183.425781	20203.685547	82.762383
501.002136	1097.017700	23780.343750	19970.710938	83.205139
501.354584	1097.232788	23425.330078	19768.320313	83.621490
501.707001	1100.394409	23066.189453	19554.958984	84.015007
502.059387	1102.523804	22777.572266	19375.949219	84.306274
502.411682	1104.524048	22528.509766	19230.986328	84.608261
502.764038	1104.265747	22331.023438	19128.908203	84.914726
503.116302	1104.480957	22180.294922	19068.492188	85.235199
503.468475	1104.803589	22081.445313	19065.222656	85.621040
503.820709	1104.954102	22042.277344	19077.869141	85.841507
504.172852	1105.943481	22012.984375	19097.658203	86.055771
504.524902	1106.136963	22011.242188	19146.265625	86.295326
504.876953	1104.588379	22025.222656	19189.841797	86.446968
505.228912	1102.631226	22043.330078	19227.501953	86.553322
505.580872	1100.222290	22069.484375	19282.689453	86.710098
505.932770	1096.953125	22046.945313	19305.466797	86.914177
506.284698	1098.996460	22020.857422	19319.406250	87.087906
506.636505	1100.695557	22023.373047	19346.957031	87.208061
506.988342	1100.179443	22017.480469	19378.662109	87.384521
507.340088	1100.136353	22023.845703	19399.933594	87.459625
507.691772	1100.674072	22037.267578	19445.958984	87.623062
508.043396	1099.684692	22092.435547	19522.484375	87.757912
508.395050	1100.308472	22172.833984	19598.859375	87.785164
508.746582	1101.555786	22285.621094	19721.498047	87.895981
509.098114	1101.039551	22428.003906	19864.677734	87.980820
509.449646	1099.405151	22588.648438	20000.824219	87.957581
509.801086	1100.200806	22787.533203	20174.326172	87.950539
510.152557	1097.447754	22997.281250	20362.501953	87.968956
510.503906	1094.909790	23199.820313	20534.308594	87.941544
510.855194	1096.114136	23391.392578	20695.015625	87.906067
511.206482	1096.028076	23587.716797	20854.970703	87.849976
511.557709	1094.587158	23787.632813	21017.292969	87.792122
511.908844	1096.458496	23983.898438	21159.933594	87.661507
512.260010	1095.275513	24123.050781	21272.873047	87.622871
512.611206	1094.415161	24226.591797	21337.957031	87.512482
512.962219	1096.178711	24295.806641	21375.917969	87.414063
513.313232	1099.512573	24345.337891	21386.519531	87.271614
513.664246	1099.899780	24347.125000	21368.990234	87.189285
514.015137	1101.663330	24320.863281	21318.681641	87.070259
514.366028	1103.362549	24279.220703	21258.246094	86.964996
514.716919	1103.319458	24214.181641	21159.070313	86.780624
515.067688	1103.706665	24113.310547	21043.013672	86.656456
515.418396	1106.158569	24022.310547	20933.472656	86.521133
515.769104	1105.857422	23951.248047	20841.701172	86.388733
516.119812	1105.857544	23936.923828	20796.707031	86.245857
516.470459	1104.136719	24019.449219	20821.720703	86.045448
516.821106	1103.943237	24165.898438	20916.742188	85.911186
517.171631	1102.631348	24438.595703	21128.294922	85.814598
517.522095	1104.072266	24824.949219	21422.246094	85.655235
517.872559	1101.104126	25355.875000	21825.263672	85.443642
518.222961	1099.491089	25922.587891	22267.126953	85.273956
518.573364	1099.878296	26497.068359	22701.113281	85.053642
518.923645	1097.447876	27009.025391	23084.669922	84.854820
519.273987	1095.813232	27444.949219	23384.060547	84.588150
519.624207	1095.017334	27744.255859	23579.138672	84.370598
519.974487	1094.845215	27967.314453	23711.220703	84.161880
520.324646	1097.146606	28054.812500	23742.039063	84.001678
520.674744	1099.426392	28052.123047	23683.878906	83.792923
521.024780	1100.351196	27905.179688	23506.570313	83.590233
521.374878	1100.415771	27644.673828	23220.726563	83.333694
521.724792	1102.588013	27274.068359	22849.087891	83.092354
522.074707	1100.544800	26863.738281	22449.169922	82.864822
522.424744	1100.136230	26471.169922	22073.099609	82.664993
522.774536	1100.265381	26182.986328	21766.654297	82.392929
523.124329	1099.082520	25963.087891	21533.570313	82.185020
523.474182	1100.846191	25892.238281	21422.052734	81.968803
523.823914	1101.426880	25940.138672	21408.482422	81.755669
524.173523	1102.029175	26151.929688	21514.064453	81.485497
524.523132	1100.588013	26546.710938	21756.826172	81.176369
524.872803	1100.007324	27100.238281	22136.248047	80.907898
525.222290	1098.544678	27838.675781	22663.841797	80.647690
525.571777	1098.695190	28641.482422	23241.976563	80.395935
525.921326	1100.544800	29516.044922	23874.529297	80.146347
526.270752	1100.996582	30439.126953	24548.439453	79.921394
526.620178	1103.706543	31463.101563	25292.531250	79.674927
526.969482	1103.663574	32721.966797	26231.617188	79.472809
527.318787	1102.416138	34311.453125	27433.400391	79.288612
527.668030	1102.416138	36333.511719	29019.013672	79.238518
528.017212	1100.588013	38582.175781	30894.664063	79.489906
528.366394	1098.243652	40807.421875	32798.839844	79.831909
528.715515	1099.964233	42803.152344	34433.425781	79.930244
529.064636	1102.201050	44375.453125	35666.292969	79.874031
529.413635	1101.125732	45543.597656	36528.722656	79.715630
529.762695	1100.652466	46308.406250	37029.753906	79.475533
530.111633	1098.028442	46743.621094	37273.871094	79.253746
530.460510	1096.415405	46786.746094	37219.148438	79.059906
530.809387	1096.996216	46388.996094	36810.882813	78.852524
531.158142	1095.017456	45484.238281	35996.070313	78.625061
531.506958	1094.006470	44063.546875	34715.953125	78.246002
531.855652	1096.759521	42402.140625	33138.921875	77.573814
532.204407	1096.049683	40807.140625	31566.406250	76.730095
532.552979	1095.081909	39555.570313	30345.244141	76.052498
532.901611	1093.963379	38680.625000	29491.849609	75.553101
533.250183	1090.522217	38107.992188	28916.550781	75.169998
533.598755	1091.511597	37671.503906	28478.343750	74.868340
533.947205	1093.834473	37317.117188	28099.630859	74.553703
534.295593	1093.770020	37026.246094	27791.400391	74.299446
534.643982	1093.146362	36790.921875	27505.406250	73.988525
534.992249	1098.329590	36565.519531	27262.712891	73.770668
535.340576	1099.211426	36345.882813	27016.705078	73.531746
535.688843	1096.867065	36093.421875	26734.517578	73.257645
536.037048	1098.351074	35689.480469	26341.630859	72.976166
536.385315	1097.727417	35053.160156	25769.945313	72.660591
536.733398	1093.404297	34230.691406	25045.919922	72.282661
537.081421	1097.963989	33336.515625	24282.257813	71.914810
537.429443	1098.781372	32512.695313	23596.470703	71.616959
537.777466	1099.964233	31796.349609	23003.126953	71.354210
538.125427	1099.491089	31195.392578	22489.648438	71.073326
538.473267	1100.652466	30718.154297	22075.123047	70.817825
538.821167	1096.157349	30342.189453	21721.273438	70.522781
539.169006	1093.490356	30042.281250	21424.955078	70.232521
539.516846	1095.404541	29785.906250	21173.978516	69.983353
539.864502	1094.393677	29725.533203	21048.392578	69.693344
540.212219	1093.597778	29960.894531	21115.109375	69.357071
540.559875	1096.415527	30618.244141	21477.283203	69.036606
540.907410	1095.189453	31609.419922	22070.068359	68.738022
541.254944	1091.812866	32749.218750	22775.123047	68.493645
541.602478	1088.629517	33840.988281	23438.001953	68.237442
541.949951	1091.081543	34812.960938	24031.687500	68.028847
542.297363	1090.995483	35665.558594	24538.162109	67.816231
542.644714	1090.952393	36393.113281	24952.382813	67.591980
542.992126	1094.909912	36898.488281	25212.998047	67.362228
543.339355	1094.909912	37133.890625	25288.318359	67.131226
543.686646	1095.641113	36962.300781	25079.537109	66.869614
544.033813	1096.028320	36350.503906	24574.636719	66.597527
544.380920	1098.544800	35273.101563	23765.160156	66.325996
544.728027	1098.157593	33893.148438	22764.455078	66.065872
545.075134	1099.577026	32485.080078	21722.544922	65.708580
545.422180	1102.609741	31191.500000	20780.017578	65.397583
545.769165	1100.136230	30101.513672	19958.085938	65.024323
546.116150	1101.512695	29163.873047	19257.718750	64.699501
546.463013	1103.620605	28333.876953	18631.835938	64.370361
546.809875	1101.147095	27652.351563	18113.080078	64.072174
547.156677	1100.222290	27041.158203	17640.806641	63.762482
547.503418	1099.340576	26523.564453	17255.666016	63.546974
547.850098	1099.555664	26053.443359	16890.029297	63.278614
548.196777	1099.060913	25603.150391	16550.568359	63.056854
548.543396	1099.684448	25154.019531	16206.803711	62.804142
548.890015	1099.921143	24654.173828	15843.490234	62.594090
549.236633	1099.577026	24106.105469	15447.633789	62.365150
549.583069	1099.383545	23500.394531	15014.762695	62.119423
549.929504	1100.953613	22837.970703	14547.952148	61.862202
550.275879	1100.846191	22184.296875	14089.015625	61.603622
550.622253	1102.136597	21534.345703	13637.024414	61.348667
550.968567	1102.953979	20971.779297	13244.480469	61.108421
551.314819	1105.255249	20489.205078	12887.488281	60.783451
551.661072	1104.029297	20128.861328	12631.909180	60.593861
552.007263	1102.029175	19904.488281	12447.305664	60.339321
552.353394	1103.190430	19757.716797	12308.988281	60.070126
552.699524	1104.480957	19663.253906	12201.833984	59.795727
553.045593	1102.373169	19617.462891	12125.954102	59.538361
553.391602	1104.631470	19596.880859	12073.688477	59.317047
553.737549	1101.168579	19576.876953	12018.306641	59.089142
554.083435	1101.770996	19533.453125	11940.769531	58.806343
554.429321	1103.706543	19478.607422	11854.652344	58.508862
554.775146	1101.942993	19381.414063	11755.305664	58.280476
555.120972	1101.018188	19274.023438	11652.325195	58.060326
555.466675	1102.115112	19112.755859	11517.083008	57.826748
555.812439	1104.222900	18910.880859	11353.407227	57.558159
556.158081	1103.556274	18680.765625	11175.857422	57.303185
556.503662	1102.824829	18449.339844	10992.738281	57.013832
556.849182	1104.739136	18225.054688	10819.125977	56.741863
557.194702	1103.061401	18018.554688	10665.170898	56.528702
557.540161	1104.588501	17818.185547	10518.334961	56.323875
557.885620	1104.330322	17654.017578	10393.911133	56.131458
558.231018	1102.050537	17501.242188	10281.381836	55.974289
558.576355	1100.265381	17381.789063	10171.926758	55.717522
558.921692	1102.115112	17289.044922	10077.441406	55.447983
559.266968	1101.985962	17192.560547	9982.957031	55.193623
559.612183	1100.007324	17111.517578	9905.829102	54.996826
559.957336	1100.157837	17059.187500	9848.661133	54.818516
560.302429	1099.211426	17023.355469	9811.300781	54.709938
560.647522	1098.673706	17005.095703	9771.447266	54.523724
560.992554	1097.211182	16996.341797	9725.054688	54.266136
561.337524	1097.168213	17005.804688	9699.288086	54.072014
561.682434	1095.275513	17022.130859	9677.393555	53.884575
562.027344	1095.662720	17028.236328	9645.173828	53.660576
562.372253	1099.039307	17038.152344	9628.699219	53.514019
562.717102	1099.189941	17022.064453	9601.405273	53.396229
563.061829	1097.813354	17045.335938	9578.477539	53.178570
563.406494	1096.974609	17039.208984	9550.194336	53.024059
563.751160	1093.253784	17025.033203	9513.308594	52.850685
564.095825	1093.963501	17028.648438	9485.260742	52.660576
564.440369	1093.060059	17044.304688	9461.042969	52.459747
564.784973	1095.146362	17087.515625	9462.590820	52.321480
565.129456	1094.329224	17191.763672	9490.637695	52.159298
565.473877	1093.705444	17318.017578	9537.718750	52.045433
565.818298	1091.167480	17494.449219	9612.093750	51.946472
566.162659	1090.801880	17690.904297	9691.653320	51.812042
566.507019	1087.661621	17885.035156	9774.524414	51.715607
566.851196	1090.844849	18033.029297	9840.532227	51.644390
567.195435	1090.930786	18181.650391	9897.334961	51.527409
567.539612	1094.350586	18281.232422	9930.306641	51.411045
567.883789	1093.038574	18350.337891	9937.553711	51.250870
568.227844	1094.350708	18373.931641	9941.834961	51.201965
568.571960	1094.243042	18368.382813	9918.821289	51.085484
568.915955	1094.888306	18297.125000	9863.522461	50.973801
569.259888	1096.587402	18214.556641	9797.665039	50.830086
569.603821	1099.405151	18094.542969	9714.170898	50.689587
569.947632	1099.426514	17961.880859	9621.384766	50.538063
570.291504	1100.544922	17867.480469	9542.429688	50.348408
570.635193	1097.146606	17825.111328	9506.038086	50.268467
570.979004	1099.275879	17849.824219	9490.250977	50.093731
571.322632	1100.695435	17954.826172	9525.094727	49.984180
571.666321	1101.190186	18077.617188	9574.219727	49.910557
572.009949	1102.072021	18221.482422	9621.300781	49.763565
572.353455	1102.566772	18347.908203	9671.628906	49.689144
572.696960	1101.254761	18457.728516	9704.772461	49.569500
573.040405	1099.146973	18533.201172	9733.636719	49.526577
573.383850	1098.587769	18599.574219	9750.584961	49.437199
573.727173	1099.297607	18644.417969	9767.962891	49.407837
574.070557	1099.577148	18657.710938	9770.350586	49.383232
574.413879	1100.953735	18657.667969	9743.292969	49.225262
574.757019	1099.813721	18610.478516	9709.224609	49.166676
575.100281	1097.447876	18509.691406	9636.656250	49.041397
575.443420	1097.125122	18375.201172	9549.979492	48.922428
575.786499	1094.458130	18211.888672	9455.494141	48.845161
576.129517	1091.361084	18045.138672	9355.332031	48.744125
576.472534	1090.909302	17876.083984	9263.320313	48.688271
576.815491	1091.296509	17689.091797	9158.425781	48.603622
577.158447	1090.221191	17486.445313	9046.088867	48.522560
577.501343	1090.049072	17278.958984	8928.009766	48.415619
577.844116	1089.167236	17046.132813	8795.821289	48.296490
578.187012	1089.769531	16777.798828	8655.760742	48.227798
578.529724	1090.479370	16485.935547	8504.409180	48.156609
578.872375	1090.285645	16187.790039	8356.110352	48.125999
579.215027	1092.199951	15902.677734	8212.867188	48.078579
579.557617	1093.834473	15631.097656	8074.570801	48.019604
579.900146	1097.426270	15371.777344	7938.016113	47.922245
580.242676	1098.200684	15135.146484	7809.957520	47.814938
580.585144	1098.372681	14925.915039	7688.973633	47.662853
580.927612	1099.964355	14731.781250	7589.219238	47.603745
581.269958	1099.598633	14558.878906	7491.014160	47.487053
581.612305	1099.770752	14418.152344	7422.445801	47.473297
581.954590	1099.125488	14297.750000	7358.546387	47.424797
582.296814	1099.512573	14190.812500	7301.679688	47.376251
582.639038	1100.200806	14103.037109	7254.554688	47.330860
582.981140	1099.340576	14021.628906	7208.419922	47.275520
583.323242	1099.512573	13931.920898	7158.887207	47.219311
583.665283	1098.265015	13851.415039	7126.388672	47.267719
584.007324	1100.028687	13781.985352	7089.781738	47.230511
584.349304	1102.007446	13709.204102	7055.842285	47.225685
584.691284	1102.308472	13636.271484	7020.482910	47.217106
585.033142	1102.351685	13574.391602	6992.587402	47.227524
585.374939	1104.566895	13519.954102	6961.077637	47.171391
585.716736	1107.836060	13466.011719	6936.794922	47.166824
586.058411	1106.567139	13411.962891	6906.511230	47.133343
586.400085	1110.137451	13364.902344	6882.014160	47.099045
586.741760	1109.212769	13321.413086	6865.624512	47.136566
587.083374	1109.234253	13313.434570	6859.257813	47.115120
587.424988	1108.954590	13301.734375	6845.579590	47.049362
587.766541	1107.018799	13296.334961	6847.859375	47.097317
588.107971	1106.717773	13323.178711	6855.773926	47.059914
588.449341	1105.964966	13351.696289	6865.732910	47.034904
588.790710	1102.932373	13396.068359	6886.401855	47.046333
589.132080	1100.415894	13431.727539	6904.576172	47.068474
589.473267	1097.619873	13485.625977	6925.718262	47.046303
589.814514	1098.308105	13539.355469	6947.937012	47.018784
590.155762	1094.866943	13599.190430	6969.487793	46.980721
590.496948	1095.662720	13625.881836	6976.929199	46.936665
590.838013	1093.791504	13636.012695	6978.025391	46.915405
591.179077	1093.425903	13644.377930	6986.220215	46.950974
591.520081	1093.124756	13635.905273	6977.402832	46.913670
591.861023	1092.909668	13604.050781	6956.603516	46.867779
592.201965	1094.049683	13567.380859	6938.773926	46.857765
592.542847	1094.350708	13520.362305	6914.943359	46.842003
592.883606	1094.350586	13474.616211	6889.951172	46.813217
593.224365	1093.812988	13432.461914	6869.087891	46.806381
593.565125	1095.038940	13414.565430	6864.851074	46.834690
593.905823	1093.662354	13405.166016	6860.979492	46.844948
594.246521	1093.640991	13429.277344	6862.958008	46.769512
594.587097	1095.813232	13479.755859	6889.929199	46.787331
594.927612	1095.060425	13530.147461	6909.867188	46.761288
595.268127	1098.501831	13617.537109	6948.754395	46.730858
595.608582	1096.738159	13737.702148	7013.837402	46.808922
595.948975	1097.361816	13919.186523	7094.578125	46.773502
596.289307	1097.921021	14138.355469	7196.762695	46.768700
596.629700	1097.920898	14373.543945	7309.313965	46.787960
596.969971	1098.695190	14583.634766	7407.541016	46.784382
597.310242	1095.791748	14748.256836	7483.980957	46.791473
597.650391	1097.017700	14833.452148	7525.578125	46.799339
597.990540	1098.157715	14878.662109	7550.828125	46.824635
598.330627	1096.910278	14868.209961	7539.880859	46.785496
598.670654	1098.071655	14827.321289	7516.221680	46.748001
599.010620	1096.802612	14715.005859	7460.882324	46.732155
599.350525	1097.211182	14560.815430	7380.656250	46.669861
599.690491	1095.447510	14334.487305	7273.847168	46.668034
600.030334	1095.963745	14053.934570	7138.647949	46.632950
600.370178	1098.437134	13753.231445	6988.500488	46.544128
600.710022	1097.920898	13462.032227	6851.708984	46.536205
601.049683	1100.523438	13202.603516	6726.102051	46.484394
601.389343	1100.222290	13015.827148	6635.618652	46.455021
601.728943	1098.458618	12878.240234	6574.642578	46.487995
602.068542	1099.340454	12808.490234	6540.251465	46.467178
602.408081	1099.555542	12813.306641	6543.907715	46.478298
602.747498	1096.587402	12897.833984	6587.632813	46.529369
603.087036	1097.426270	13028.324219	6651.770508	46.554283
603.426453	1096.200317	13228.691406	6741.802734	46.532921
603.765869	1096.049683	13460.613281	6849.901855	46.535019
604.105103	1095.404419	13732.733398	6976.843262	46.540207
604.444336	1095.038940	14025.156250	7109.289551	46.513504
604.783569	1092.694580	14310.224609	7237.864258	46.492573
605.122681	1093.339722	14537.800781	7344.134766	46.493458
605.461792	1093.898926	14714.596680	7417.929688	46.429565
605.800842	1091.619141	14821.641602	7466.860840	46.432858
606.139954	1091.188965	14841.731445	7475.162598	46.427067
606.478943	1092.458008	14791.166016	7445.674805	46.378220
606.817932	1092.909668	14669.818359	7387.754395	46.364346
607.156799	1096.307861	14492.224609	7306.626465	46.359787
607.495605	1098.050049	14283.812500	7203.946777	46.306736
607.834412	1097.770386	14040.190430	7087.996582	46.283665
608.173157	1099.641602	13796.268555	6971.551758	46.247795
608.511841	1100.394409	13598.674805	6875.518555	46.207348
608.850464	1098.394165	13492.187500	6819.059570	46.157505
609.189148	1099.856567	13428.931641	6791.916016	46.167774
609.527710	1100.674072	13402.199219	6777.162598	46.144588
609.866211	1099.684692	13397.660156	6774.366699	46.143223
610.204712	1098.544800	13401.832031	6769.441895	46.092537
610.543091	1097.619873	13421.490234	6767.247070	46.005249
610.881409	1095.705566	13409.467773	6758.901855	45.990791
611.219788	1093.963623	13372.667969	6740.232910	45.984245
611.558044	1093.812988	13309.347656	6710.443848	45.979408
611.896301	1091.705078	13199.097656	6654.308105	45.943855
612.234436	1092.737671	13027.894531	6580.105957	45.976505
612.572693	1094.694824	12793.499023	6470.393555	45.950836
612.910767	1094.221558	12539.918945	6350.593262	45.924435
613.248840	1094.178589	12277.156250	6230.793945	45.932446
613.586792	1096.888550	12025.425781	6106.218750	45.837151
613.924805	1098.695190	11788.512695	6001.990723	45.868843
614.262695	1099.727661	11571.411133	5906.000488	45.897804
614.600525	1101.254761	11383.238281	5822.527344	45.917915
614.938293	1102.953979	11231.972656	5753.056641	45.908718
615.276123	1103.040039	11102.236328	5688.747559	45.860760
615.613892	1100.824707	10995.621094	5643.279785	45.907513
615.951538	1099.362183	10904.834961	5595.918457	45.857616
616.289185	1099.835205	10831.686523	5568.410156	45.917011
616.626770	1097.641479	10767.162109	5538.686035	45.928280
616.964294	1097.727417	10728.683594	5517.672363	45.893105
617.301819	1096.781128	10697.540039	5502.101074	45.885120
617.639221	1097.619873	10677.108398	5490.164063	45.853638
617.976624	1097.211060	10657.708008	5482.399414	45.867786
618.313965	1096.243286	10649.468750	5470.957520	45.793060
618.651306	1096.028198	10634.735352	5469.495117	45.849682
618.988525	1094.178589	10620.928711	5464.182129	45.870872
619.325684	1097.297363	10602.753906	5457.515137	45.870682
619.662964	1099.921387	10589.075195	5450.847168	45.851566
620.000000	1099.813721	10570.235352	5437.706055	45.804638
620.337097	1098.974854	10547.738281	5425.316895	45.787384
620.674133	1097.942505	10512.743164	5409.013672	45.790359
621.011047	1097.017578	10483.148438	5393.184082	45.771431
621.347961	1096.092773	10448.735352	5376.429199	45.766064
621.684875	1094.737793	10412.816406	5358.599609	45.759026
622.021729	1095.813232	10378.791016	5345.220703	45.776337
622.358521	1095.684204	10344.764648	5323.498047	45.710644
622.695313	1097.103638	10306.308594	5311.432129	45.762131
623.031982	1096.824097	10284.176758	5297.710449	45.724667
623.368652	1095.296997	10261.485352	5288.160645	45.742718
623.705261	1095.963745	10251.548828	5283.858887	45.741425
624.041748	1097.469238	10251.785156	5281.729492	45.708057
624.378296	1099.340454	10255.355469	5286.848633	45.735054
624.714722	1099.426636	10275.638672	5298.355469	45.758846
625.051147	1101.190186	10313.256836	5313.991699	45.731342
625.387512	1100.501953	10365.477539	5339.586426	45.753864
625.723877	1098.609253	10452.929688	5376.730469	45.734173
626.060120	1099.770630	10549.522461	5416.886230	45.684963
626.396301	1098.716797	10676.248047	5469.687988	45.637764
626.732483	1099.362183	10795.445313	5527.932129	45.673801
627.068604	1102.287109	10906.147461	5583.917480	45.712914
627.404724	1102.631348	11006.245117	5625.966309	45.673584
627.740662	1102.609863	11092.771484	5662.099609	45.639797
628.076721	1104.029175	11155.273438	5685.500488	45.581135
628.412720	1104.889526	11191.256836	5698.878418	45.546516
628.748596	1103.620605	11195.687500	5699.201172	45.536568
629.084473	1105.943481	11178.266602	5686.597656	45.477634
629.420227	1107.277100	11111.333984	5659.540527	45.504177
629.755981	1106.911377	11027.991211	5625.644043	45.546780
630.091675	1108.180298	10910.987305	5571.034668	45.526295
630.427307	1110.503174	10777.874023	5510.941406	45.518459
630.762939	1106.266113	10644.050781	5444.459473	45.484283
631.098450	1105.362671	10515.711914	5383.483887	45.461872
631.434021	1104.781982	10400.235352	5330.080078	45.455532
631.769470	1103.685059	10291.620117	5278.847656	45.441792
632.104980	1102.846313	10191.930664	5236.003906	45.473866
632.440308	1102.029053	10108.780273	5198.149414	45.478333
632.775635	1101.813965	10030.147461	5161.671875	45.471619
633.110901	1099.211426	9979.409180	5133.216797	45.426979
633.446106	1098.480103	9941.985352	5113.730957	45.403389
633.781250	1099.641602	9918.605469	5101.277832	45.375355
634.116394	1099.232910	9898.128906	5084.802734	45.296246
634.451538	1102.158081	9885.289063	5077.812012	45.264656
634.786560	1102.867798	9865.500977	5070.520996	45.279236
635.121582	1102.502075	9830.788086	5059.336426	45.333466
635.456543	1102.308594	9802.785156	5045.872559	45.325840
635.791443	1103.534424	9758.627930	5023.999023	45.296616
636.126221	1104.502441	9707.848633	5001.243652	45.293324
636.461060	1105.190674	9659.993164	4981.993652	45.317268
636.795776	1107.190918	9596.716797	4956.786133	45.345234
637.130493	1105.943481	9518.750000	4917.555176	45.307255
637.465210	1103.878784	9428.092773	4878.152832	45.340904
637.799805	1102.028931	9344.297852	4842.406250	45.380436
638.134399	1101.233276	9254.458984	4802.659668	45.398304
638.468933	1101.254761	9165.372070	4765.945801	45.444416
638.803345	1101.125610	9083.641602	4725.811523	45.407814
639.137756	1100.050293	9002.297852	4690.237305	45.432480
639.472168	1100.394409	8935.709961	4660.663574	45.438747
639.806519	1100.007324	8868.152344	4628.917480	45.427963
640.140747	1096.695190	8796.789063	4596.548340	45.452084
640.474976	1094.071167	8722.736328	4563.274902	45.475895
640.809204	1094.759277	8651.587891	4533.701660	45.507748
641.143372	1095.899292	8599.172852	4506.343262	45.452747
641.477478	1095.770264	8539.037109	4477.006836	45.426785
641.811462	1095.469116	8489.138672	4449.927734	45.369331
642.145447	1096.630615	8438.615234	4427.043457	45.361210
642.479370	1098.974976	8393.835938	4403.599609	45.300720
642.813293	1100.846069	8347.163086	4385.532227	45.329041
643.147095	1100.846191	8300.597656	4367.336426	45.369488
643.480957	1101.039673	8259.368164	4354.431641	45.449047
643.814758	1104.373413	8223.168945	4336.279297	45.399616
644.148438	1105.362793	8195.423828	4322.341797	45.373077
644.482117	1105.986450	8168.646973	4315.051270	45.437054
644.815735	1103.061401	8131.695801	4301.866699	45.511047
645.149292	1102.717163	8109.973145	4293.478027	45.535095
645.482788	1101.899902	8092.078125	4292.123047	45.638653
645.816223	1099.942749	8076.871582	4287.283691	45.684010
646.149658	1099.706177	8067.816895	4290.058105	45.785034
646.483032	1100.502075	8075.860840	4293.477539	45.775074
646.816345	1100.093384	8077.473633	4294.961914	45.788940
647.149658	1098.200684	8077.538574	4293.047852	45.775791
647.482849	1096.200317	8084.291992	4298.618652	45.826794
647.816101	1096.824097	8078.957520	4300.661621	45.886227
648.149231	1098.308105	8086.378418	4302.253418	45.848785
648.482239	1100.523560	8096.530762	4309.071289	45.862556
648.815247	1100.953613	8095.196777	4314.857422	45.950703
649.148254	1099.426636	8089.260742	4313.695313	45.984905
649.481201	1100.222412	8077.538574	4310.146484	46.005138
649.814087	1101.082764	8073.194824	4305.737793	45.963905
650.146973	1098.630859	8060.848633	4300.619141	45.990925
650.479736	1098.931885	8054.697266	4296.790527	45.974216
650.812500	1101.921509	8054.976563	4294.574707	45.917274
651.145203	1101.104248	8043.039551	4291.908203	45.964184
651.477844	1100.803101	8051.212402	4295.822754	45.968796
651.810486	1097.705933	8047.298340	4290.983398	45.949131
652.143005	1096.716675	8036.156250	4286.703125	45.968933
652.475525	1096.716675	8036.543457	4281.755859	45.895081
652.807922	1097.426392	8025.961426	4277.712891	45.901283
653.140381	1097.168213	8024.478027	4267.152832	45.760689
653.472717	1095.383057	7998.733887	4259.301758	45.831638
653.805115	1095.727173	7972.062988	4243.515137	45.777115
654.137390	1093.770020	7941.564453	4232.287598	45.832531
654.469543	1093.296753	7907.625000	4219.275391	45.873611
654.801758	1095.619629	7876.094238	4203.295410	45.832718
655.133850	1096.867065	7834.734375	4185.959473	45.846737
655.465881	1097.490723	7790.793457	4170.860840	45.917095
655.797974	1099.082397	7760.961426	4157.913086	45.915432
656.129944	1099.921143	7724.742188	4148.406250	46.016109
656.461853	1098.114502	7702.911133	4142.104980	46.087570
656.793762	1096.974487	7684.500000	4142.449219	46.230934
657.125610	1097.189575	7687.489258	4143.567871	46.225185
657.457397	1096.845581	7706.740234	4154.429199	46.257675
657.789124	1098.265137	7744.443359	4174.087402	46.279564
658.120789	1096.652100	7805.526367	4207.445801	46.368343
658.452393	1095.963867	7895.795410	4254.527344	46.450615
658.783997	1096.393921	8007.443848	4306.253906	46.445328
659.115540	1099.706177	8137.502930	4373.079590	46.511337
659.447083	1099.082520	8251.990234	4432.699707	46.605064
659.778503	1097.383301	8362.735352	4486.018066	46.641026
660.109924	1099.276001	8457.262695	4526.087891	46.572685
660.441284	1099.770630	8524.668945	4562.909668	46.642242
660.772522	1100.394287	8568.072266	4587.966309	46.702229
661.103760	1101.082520	8577.277344	4602.634766	46.836021
661.434998	1102.028809	8569.641602	4597.537109	46.808910
661.766113	1104.007690	8515.679688	4574.266113	46.821533
662.097229	1104.029419	8421.323242	4531.895020	46.846085
662.428345	1104.717651	8297.867188	4477.307129	46.886131
662.759277	1102.179565	8148.234863	4407.492188	46.910114
663.090332	1102.609741	8003.937988	4339.010742	46.895332
663.421204	1101.942993	7856.973145	4270.830078	46.911518
663.752075	1102.846313	7713.859375	4208.134766	46.971447
664.082886	1102.867798	7589.284668	4146.965332	46.930340
664.413635	1100.889160	7478.367676	4095.926758	46.962723
664.744324	1099.233032	7379.688965	4048.824219	46.964603
665.075012	1097.899536	7287.720215	4008.647461	47.024754
665.405640	1097.963989	7214.679199	3975.073242	47.036835
665.736206	1098.394165	7161.597168	3952.640381	47.074886
666.066772	1095.727051	7110.623047	3930.852295	47.135067
666.397278	1096.867065	7076.941895	3910.914307	47.057060
666.727661	1095.555054	7038.851074	3898.052490	47.153931
667.058044	1097.469238	7009.146973	3884.352295	47.141998
667.388306	1097.512329	6988.822266	3874.695068	47.140324
667.718567	1098.673828	6970.820313	3869.231934	47.181351
668.048828	1099.899780	6964.669922	3864.199219	47.133976
668.378967	1102.889404	6962.884277	3864.672607	47.129444
668.709167	1103.921875	6958.732910	3864.457275	47.149864
669.039246	1101.878540	6962.690918	3866.113525	47.164703
669.369263	1102.416260	6956.776367	3863.898438	47.169666
669.699341	1104.846558	6948.473633	3861.145264	47.167603
670.029236	1105.083130	6938.924805	3861.532227	47.249298
670.359131	1107.147827	6934.085449	3851.681396	47.100792
670.688965	1106.502686	6921.546875	3845.723633	47.105766
671.018738	1105.384277	6902.124512	3833.700195	47.066383
671.348511	1103.878662	6880.379883	3826.581787	47.134125
671.678223	1104.308716	6849.687500	3816.300781	47.203018
672.007813	1102.867676	6814.112793	3804.235107	47.299099
672.337341	1100.157715	6783.227051	3786.340576	47.266411
672.666992	1102.201050	6750.986328	3769.456787	47.218220
672.996460	1102.115112	6716.401855	3752.379150	47.205715
673.325867	1100.673950	6688.054199	3739.646240	47.230938
673.655273	1097.275635	6651.426270	3720.031006	47.221539
673.984619	1095.382935	6617.271484	3708.696289	47.326443
674.314026	1096.415283	6586.729492	3694.887695	47.328297
674.643250	1098.243652	6561.845215	3684.650146	47.338856
674.972412	1098.802856	6540.853516	3673.336914	47.308163
675.301514	1098.243652	6515.022949	3657.377930	47.244572
675.630676	1097.404663	6495.687012	3642.623291	47.148678
675.959778	1100.243774	6470.328125	3632.536133	47.155544
676.288757	1099.189941	6442.131348	3621.868164	47.215157
676.617737	1098.265137	6422.817383	3606.575928	47.108391
676.946594	1098.566284	6406.148438	3597.241943	47.077477
677.275513	1100.673950	6395.158203	3594.015381	47.093185
677.604309	1101.899902	6392.383301	3587.842285	46.988945
677.933044	1100.781494	6398.320313	3586.939209	46.930428
678.261780	1100.803101	6410.879883	3591.864258	46.911961
678.590393	1099.340576	6432.216797	3597.219727	46.839252
678.919067	1101.254761	6468.823242	3615.587646	46.843056
679.247620	1100.523315	6513.860840	3629.847656	46.723934
679.576111	1099.125366	6559.737305	3653.915039	46.785774
679.904541	1098.179077	6620.088867	3677.251465	46.706165
680.232971	1098.006958	6676.332520	3709.363037	46.812542
680.561401	1097.490845	6732.962891	3733.301514	46.771778
680.889709	1097.082153	6787.829590	3755.798340	46.719982
681.217957	1096.350830	6834.244141	3777.048584	46.719196
681.546143	1094.006470	6873.323730	3791.200928	46.669773
681.874390	1095.318481	6900.359375	3804.536133	46.670090
682.202454	1096.393799	6914.985840	3812.193115	46.674511
682.530579	1096.157227	6905.263672	3804.579102	46.623726
682.858521	1099.017700	6874.012695	3793.136475	46.651443
683.186523	1099.426514	6833.169922	3772.596191	46.621719
683.514465	1099.641602	6772.193848	3749.152588	46.707565
683.842346	1100.157715	6708.701660	3714.331055	46.610554
684.170166	1101.727905	6635.251465	3677.810303	46.554108
684.497925	1100.673950	6558.102051	3645.333496	46.627453
684.825623	1100.609375	6474.780762	3606.769531	46.633423
685.153320	1103.814087	6395.049805	3572.829834	46.662361
685.481018	1100.932007	6318.846680	3536.051025	46.668438
685.808533	1097.920898	6247.827637	3501.401611	46.670372
686.136047	1096.910034	6188.508301	3473.333740	46.673435
686.463623	1094.716309	6143.836426	3452.083740	46.688679
686.791016	1093.898926	6115.273438	3434.769775	46.618130
687.118408	1093.038696	6102.132324	3419.821777	46.451180
687.445740	1093.705566	6096.776855	3417.692139	46.451199
687.772949	1094.221558	6093.271484	3416.875000	46.461895
688.100220	1095.705688	6093.701660	3412.745361	46.359371
688.427429	1093.985107	6090.109375	3411.562500	46.387508
688.754517	1094.995972	6091.464355	3411.368652	46.360199
689.081604	1098.157593	6083.226563	3407.067139	46.316505
689.408630	1102.158203	6065.138672	3400.184570	46.303352
689.735657	1102.394653	6042.167480	3390.484619	46.319736
690.062622	1104.502441	6012.873535	3375.902344	46.276043
690.389465	1104.244385	5970.202637	3356.631104	46.288658
690.716248	1105.685425	5911.765137	3332.068604	46.324310
691.043091	1103.599121	5852.058105	3301.333740	46.283112
691.369812	1101.125732	5789.728027	3274.039795	46.344601
691.696533	1100.910645	5724.429688	3243.498535	46.341064
692.023132	1104.050781	5671.025391	3216.506104	46.255028
692.349670	1102.287109	5605.705078	3187.921875	46.312263
692.676270	1101.039673	5552.150391	3162.241211	46.307579
693.002747	1098.523315	5502.918457	3134.431152	46.224461
693.329163	1099.146973	5454.503906	3114.213867	46.266399
693.655518	1098.566284	5414.843262	3094.168213	46.234337
693.981873	1098.286743	5380.150879	3076.165771	46.192005
694.308167	1097.318726	5352.255371	3065.433350	46.254852
694.634399	1099.340576	5318.573730	3052.249023	46.285858
694.960571	1100.588013	5295.774902	3039.946777	46.228184
695.286743	1100.222412	5279.320801	3031.364990	46.209549
695.612854	1098.652222	5266.910645	3027.128174	46.265751
695.938904	1098.630737	5266.072266	3022.739990	46.170036
696.264832	1098.845825	5277.858887	3024.460938	46.078224
696.590820	1100.846191	5295.279785	3036.656006	46.151878
696.916687	1100.394409	5332.553223	3053.582764	46.151112
697.242554	1100.114868	5381.053711	3080.016357	46.249233
697.568359	1099.856689	5452.417480	3113.310303	46.259060
697.894043	1100.738525	5550.967285	3154.240479	46.143742
698.219788	1099.534058	5673.821777	3210.075195	46.139229
698.545349	1101.792358	5811.623535	3267.178955	45.975891
698.870972	1102.136597	5945.833984	3326.068115	45.913929
699.196533	1102.846313	6066.235840	3377.730469	45.833279
699.521973	1101.211670	6169.517578	3425.070068	45.850796
699.847412	1101.125488	6241.720215	3458.084473	45.849930
700.172852	1103.534424	6290.349609	3473.635254	45.694721
700.498169	1104.201172	6309.813965	3473.484375	45.514011
700.823486	1103.749512	6299.876953	3461.913086	45.383099
701.148682	1104.244263	6248.881348	3437.178711	45.346920
701.473816	1103.663574	6161.343750	3395.000977	45.304119
701.799072	1104.351685	6041.027832	3337.596191	45.237820
702.124146	1100.867554	5895.203125	3268.555420	45.213524
702.449158	1100.544922	5739.484863	3194.632568	45.141514
702.774109	1103.018433	5585.810059	3124.774170	45.100372
703.099060	1102.674316	5439.813965	3054.356934	44.999302
703.424011	1102.502197	5303.388672	2993.123291	45.005287
703.748840	1100.630981	5186.169434	2942.730225	45.088284
704.073608	1099.426514	5079.683105	2897.670898	45.179108
704.398315	1100.846069	4983.585449	2860.548096	45.321148
704.723022	1103.513062	4910.414551	2823.166992	45.172012
705.047668	1101.942993	4846.686523	2790.969482	45.103928
705.372253	1101.770996	4791.173828	2763.675781	45.045361
705.696716	1102.953857	4744.007324	2741.974121	45.014999
706.021240	1102.674316	4704.539551	2722.552490	44.973316
706.345764	1097.641357	4671.353027	2705.324463	44.986370
706.670044	1099.942749	4651.285645	2694.656494	44.904530
706.994446	1097.189697	4638.187500	2688.204102	44.931244
707.318665	1095.318604	4627.347168	2679.149414	44.841961
707.642883	1094.587158	4623.282227	2676.138184	44.819714
707.967102	1093.038574	4619.604980	2669.083496	44.690636
708.291260	1092.113770	4615.281250	2668.911621	44.755119
708.615295	1095.447510	4613.969727	2671.535400	44.794029
708.939331	1096.630493	4619.562012	2673.793945	44.768494
709.263367	1096.415527	4626.874512	2678.052490	44.799755
709.587280	1097.641479	4638.832520	2687.214844	44.888100
709.911194	1098.888794	4662.556152	2697.130127	44.848217
710.234985	1098.071533	4684.344238	2704.980469	44.807217
710.558716	1101.104248	4710.605469	2714.745117	44.705368
710.882568	1104.373413	4740.694824	2730.209473	44.711014
711.206177	1105.212158	4770.397949	2741.759277	44.651138
711.529785	1105.319702	4803.110840	2751.954102	44.530216
711.853394	1104.459351	4831.093262	2760.148682	44.428551
712.176880	1103.857178	4846.105469	2765.310547	44.397198
712.500427	1102.394653	4857.935059	2768.665771	44.368343
712.823792	1100.458984	4866.709961	2773.634277	44.425488
713.147217	1100.351440	4868.839355	2773.075195	44.387135
713.470520	1099.878052	4855.547363	2766.063477	44.364540
713.793823	1100.437378	4835.544922	2756.513916	44.338123
714.117004	1100.523438	4811.112305	2741.264648	44.217812
714.440247	1098.200684	4783.754395	2724.853760	44.135921
714.763367	1098.415771	4748.201172	2709.454102	44.140633
715.086365	1097.232788	4712.841797	2694.871338	44.187260
715.409485	1096.781128	4687.011230	2685.967041	44.264183
715.732361	1097.275879	4667.696777	2678.310303	44.281456
716.055298	1097.405029	4649.586426	2672.030029	44.328396
716.378174	1100.308472	4628.573242	2661.813477	44.257027
716.700928	1100.760132	4606.527832	2650.005615	44.191334
717.023804	1101.340820	4585.686035	2640.240967	44.166122
717.346558	1101.728027	4558.823242	2630.713135	44.227451
717.669189	1098.609253	4527.421387	2617.550293	44.299339
717.991760	1097.469238	4488.470215	2602.472900	44.382282
718.314392	1096.587402	4450.594238	2583.223389	44.324181
718.636902	1099.577026	4408.395508	2565.952393	44.317192
718.959351	1100.157715	4350.775391	2542.573242	44.373585
719.281738	1098.566284	4297.457031	2518.397949	44.385128
719.604065	1098.781250	4234.267090	2490.674072	44.391617
719.926453	1097.727417	4175.249023	2465.488281	44.443584
720.248718	1095.963745	4124.210449	2441.786133	44.442299
720.570923	1096.028198	4073.709229	2420.988037	44.496365
720.893066	1093.705322	4031.316406	2401.050049	44.503670
721.215088	1096.178833	3985.740723	2382.316650	44.509785
721.537170	1098.501709	3947.241943	2364.873779	44.453758
721.859192	1100.587891	3913.947754	2352.549805	44.500595
722.181152	1099.103882	3881.728271	2336.633789	44.473476
722.503052	1100.480469	3859.360107	2325.470947	44.401737
722.824951	1102.652832	3835.615479	2316.760010	44.424580
723.146790	1103.190552	3823.097412	2308.629883	44.319141
723.468506	1104.330444	3809.010010	2300.629150	44.230698
723.790161	1104.480957	3791.265625	2297.058838	44.386806
724.111816	1107.599609	3779.392822	2293.467041	44.384701
724.433472	1109.083618	3764.789063	2293.488525	44.598503
724.755005	1108.933105	3761.132813	2295.660889	44.745037
725.076477	1107.642578	3755.927979	2294.133789	44.802242
725.397888	1106.309082	3752.292969	2293.079834	44.851776
725.719299	1106.760864	3754.831055	2295.875977	44.904968
726.040710	1105.642456	3757.368652	2298.091553	44.968788
726.361938	1102.781738	3763.111572	2301.124023	45.044876
726.683167	1101.319336	3769.628174	2306.758789	45.176159
727.004395	1098.523315	3782.791260	2311.619629	45.192814
727.325500	1098.888916	3802.943848	2318.308838	45.095974
727.646667	1097.361816	3818.666504	2325.578369	45.133373
727.967651	1096.738037	3837.765625	2331.514648	45.047947
728.288635	1095.533569	3854.434570	2336.439941	44.978287
728.609558	1096.609009	3870.242920	2346.075684	45.048004
728.930481	1097.748901	3888.051514	2351.818359	44.943848
729.251282	1097.533813	3895.902100	2358.141846	45.047970
729.572021	1097.856567	3901.946045	2360.658203	45.034286
729.892761	1101.147217	3904.398193	2362.314453	44.989452
730.213440	1103.082886	3907.000244	2366.852539	45.071571
730.534119	1103.125854	3909.043701	2374.143799	45.297760
730.854675	1105.298340	3910.914795	2375.735352	45.281921
731.175171	1103.986328	3916.764893	2379.736084	45.355499
731.495605	1106.180176	3921.561035	2383.026367	45.352520
731.816101	1105.470215	3924.852295	2387.865723	45.484985
732.136475	1105.083130	3927.583008	2390.425537	45.539146
732.456787	1101.405273	3927.024170	2394.769775	45.772785
732.777039	1100.803101	3935.347900	2396.899170	45.725014
733.097229	1101.018066	3941.176758	2402.340576	45.818653
733.417480	1098.867310	3944.983398	2405.373291	45.904873
733.737549	1097.125122	3943.112305	2403.717041	45.909969
734.057617	1098.179077	3932.616455	2400.770508	45.955906
734.377563	1095.189331	3911.086670	2395.458252	46.176003
734.697510	1096.071289	3878.867432	2382.510254	46.228287
735.017517	1093.770020	3843.358398	2370.508789	46.433815
735.337341	1093.189331	3805.761963	2356.765381	46.582199
735.657166	1093.683960	3767.800537	2339.838623	46.600609
735.976868	1096.243286	3729.903076	2322.846924	46.574112
736.296631	1096.479980	3685.919434	2305.575928	46.693348
736.616272	1096.609009	3646.989746	2288.261963	46.724510
736.935852	1094.200195	3613.695068	2272.926758	46.784241
737.255371	1092.995728	3579.648193	2262.602783	47.035408
737.574829	1092.716187	3553.386719	2252.494141	47.132599
737.894348	1093.167847	3539.879150	2244.407227	47.052521
738.213745	1090.952515	3535.707031	2242.858398	47.117447
738.533081	1090.780396	3536.954102	2240.621582	47.005703
738.852356	1092.436523	3542.008545	2241.955322	46.927334
739.171570	1091.425659	3550.095947	2246.084961	46.962753
739.490784	1090.414673	3554.031982	2248.880615	47.022968
739.809937	1089.769409	3559.795898	2254.021240	47.135197
740.129028	1086.263550	3556.870850	2256.343994	47.360031
740.447998	1089.360840	3549.062744	2255.548340	47.411739
740.767029	1089.791016	3542.073242	2251.999268	47.392925
741.085999	1090.866333	3529.534180	2247.848145	47.443188
741.404846	1093.941895	3505.854004	2243.546631	47.663624
741.723633	1096.566040	3479.054688	2234.362793	47.756645
742.042358	1097.619995	3447.330566	2224.081787	47.940453
742.361145	1098.308105	3413.713379	2211.671631	48.085037
742.679810	1098.630737	3378.698242	2199.304688	48.273746
742.998413	1098.071411	3342.435303	2186.227783	48.483959
743.316956	1096.544434	3307.721191	2172.570313	48.663044
743.635498	1100.953491	3277.159180	2159.558105	48.644512
743.953979	1099.835205	3247.563477	2150.481445	48.918957
744.272400	1103.276489	3222.377930	2143.706543	49.097698
744.590698	1101.018066	3197.170166	2135.404541	49.346920
744.909058	1098.652222	3172.715576	2127.682861	49.614231
745.227356	1099.361938	3152.347656	2119.811035	49.705608
745.545471	1099.835083	3136.452881	2113.379883	49.766079
745.863586	1101.706299	3118.794678	2111.637695	50.068771
746.181702	1101.835449	3099.072021	2108.046143	50.380146
746.499756	1105.083130	3085.199463	2108.583740	50.678871
746.817810	1108.782593	3073.305420	2106.884521	50.806328
747.135742	1106.696411	3063.347412	2106.605225	51.103073
747.453613	1107.449097	3057.948975	2106.562012	51.223431
747.771423	1105.448730	3051.646729	2107.959961	51.511265
748.089233	1108.997559	3048.893799	2112.240234	51.716305
748.406982	1110.008545	3053.905273	2119.789551	51.946228
748.724609	1109.685913	3058.378906	2127.295898	52.220127
749.042236	1107.018799	3059.346924	2141.878662	53.006451
749.359863	1104.480957	3064.616455	2147.986572	53.236401
749.677429	1103.362427	3072.724854	2156.869629	53.494835
749.994873	1101.577393	3079.026611	2164.504883	53.752453
750.312256	1100.243896	3083.586182	2175.387939	54.208698
750.629639	1103.491699	3088.361084	2187.023682	54.589584
750.946960	1104.222900	3091.178711	2198.831543	55.089733
751.264282	1104.782104	3090.511719	2205.950684	55.454105
751.581482	1103.943237	3088.726563	2209.886963	55.721130
751.898621	1101.728027	3083.779785	2216.855225	56.261253
752.215698	1100.243774	3078.725586	2225.329834	56.866131
752.532715	1102.738770	3077.456787	2229.781494	57.073605
752.849792	1101.534424	3074.101318	2236.943604	57.559982
753.166748	1101.620483	3069.283447	2245.202881	58.118816
753.483643	1101.469849	3068.767090	2254.537354	58.611759
753.800476	1100.501953	3066.680664	2262.366455	59.092518
754.117310	1095.877808	3065.132568	2272.260010	59.737431
754.434082	1092.780518	3060.593994	2280.691162	60.367035
754.750732	1091.791138	3060.551025	2289.702881	60.846004
755.067383	1092.264404	3061.110352	2304.500488	61.570896
755.383911	1093.511963	3057.410889	2314.394287	62.166252
755.700562	1093.425903	3055.905273	2324.868896	62.749348
756.016968	1093.382935	3049.216309	2329.708008	63.212189
756.333435	1095.490601	3043.925537	2341.903076	63.969929
756.649780	1097.447754	3042.161621	2355.711182	64.701729
756.966064	1096.996094	3042.914795	2368.637695	65.349167
757.282410	1097.017578	3046.441650	2381.069092	65.868248
757.598633	1096.630493	3049.990723	2397.909912	66.617485
757.914795	1100.329956	3059.734131	2415.482178	67.120010
758.230896	1099.577148	3072.273438	2435.355469	67.713326
758.546936	1096.673706	3082.403320	2457.121582	68.511238
758.862976	1095.146606	3093.996094	2479.468506	69.255936
759.178894	1094.221558	3103.352295	2500.245361	69.981697
759.494812	1095.296997	3115.203125	2523.280518	70.695541
759.810669	1094.931274	3124.688232	2544.594727	71.420540
760.126526	1094.027832	3134.172852	2563.177979	72.012047
760.442261	1093.662354	3138.109131	2580.986328	72.749458
760.757935	1092.414917	3141.571777	2598.945557	73.519539
761.073608	1095.877808	3145.593750	2613.485107	74.039886
761.389160	1094.006592	3143.851563	2627.013428	74.786476
761.704712	1095.576538	3141.012451	2642.478027	75.626984
762.020203	1098.351074	3145.658447	2654.178467	75.993835
762.335571	1100.458862	3166.349365	2680.655029	76.489830
762.650940	1102.394653	3207.171631	2730.230957	77.340088
762.966370	1100.329956	3283.697021	2809.466553	78.279854
763.281677	1100.867676	3390.075928	2906.015869	78.854698
763.596863	1098.243652	3507.316162	3011.061035	79.400574
763.911987	1100.415894	3602.295898	3106.341553	80.176735
764.227112	1102.867798	3678.735352	3186.114990	80.875549
764.542236	1103.319458	3740.076416	3247.176514	81.306587
764.857178	1103.685059	3780.877441	3298.688232	81.988998
765.172119	1102.609863	3804.622070	3330.477295	82.452164
765.487061	1099.082397	3818.322754	3357.792725	83.064026
765.801880	1095.899292	3806.385742	3363.040527	83.643333
766.116760	1094.608643	3769.692871	3339.618164	83.922951
766.431458	1094.243042	3686.671875	3287.396729	84.598427
766.746155	1093.124634	3573.044678	3205.171143	85.165909
767.060791	1095.296997	3442.340576	3111.159424	85.889435
767.375427	1094.716309	3328.520264	3023.922852	86.364182
767.689941	1093.232300	3229.862549	2947.053223	86.763763
768.004395	1090.027466	3144.906006	2884.099121	87.307922
768.318848	1087.769165	3074.574463	2828.393555	87.609207
768.633179	1088.134888	3014.631836	2784.818115	88.070900
768.947632	1090.457764	2957.291260	2744.038818	88.576782
769.261841	1091.188965	2908.618408	2712.658447	89.217743
769.576111	1091.877197	2861.257813	2685.364990	90.059074
769.890259	1093.038818	2827.167725	2656.049561	90.132324
770.204285	1094.501221	2789.485596	2635.143555	90.894188
770.518433	1092.630127	2756.814697	2614.323975	91.437805
770.832458	1091.081543	2725.714111	2598.042236	92.189568
771.146362	1090.844849	2697.301758	2581.911133	92.817070
771.460205	1091.619263	2670.524170	2568.253662	93.522697
771.774109	1093.490356	2651.468262	2556.875488	93.928490
772.087952	1094.608765	2632.154053	2546.788330	94.447922
772.401672	1094.888550	2615.657227	2532.980225	94.563477
772.715332	1098.071411	2602.666504	2516.698730	94.286316
773.028992	1098.630737	2589.718506	2505.837402	94.374504
773.342590	1098.049927	2572.082031	2493.298096	94.655212
773.656128	1097.103638	2557.994385	2482.802490	94.853012
773.969604	1099.555664	2543.970947	2473.768799	95.139755
774.283020	1100.200928	2532.851563	2464.305176	95.215416
774.596375	1099.577148	2521.043701	2455.551758	95.392647
774.909729	1100.695557	2507.816162	2447.421631	95.707932
775.223022	1101.900024	2492.523926	2438.560303	96.119469
775.536194	1105.836060	2481.941895	2430.774414	96.281715
775.849304	1105.857544	2466.456055	2425.677002	97.002861
776.162476	1104.674561	2453.142822	2423.805664	97.824409
776.475525	1104.739014	2438.840088	2417.353271	98.389420
776.788513	1105.427246	2430.839111	2414.019531	98.730995
777.101440	1103.857178	2424.859863	2410.191162	98.889580
777.414307	1102.502075	2417.826660	2403.373291	98.901154
777.727173	1100.566406	2414.213379	2398.942383	98.837509
778.039978	1102.781738	2408.384521	2396.125000	99.061005
778.352722	1101.211792	2403.846191	2393.027832	99.169502
778.665405	1098.566284	2402.491455	2391.780273	99.178543
778.977966	1092.823608	2397.759521	2392.124512	99.568176
779.290649	1092.436401	2399.566162	2393.565430	99.540924
779.603149	1092.156860	2396.124756	2391.844727	99.671768
779.915588	1090.328613	2397.006836	2391.823242	99.603302
780.227966	1090.199585	2391.801514	2389.930664	99.856262
780.540405	1090.048950	2385.219971	2385.714844	100.038208
780.852722	1088.307007	2382.596191	2386.962402	100.337341
781.164917	1089.554321	2373.412354	2382.961914	100.743820
781.477173	1089.876953	2365.260742	2379.305420	101.101212
781.789246	1090.737305	2355.926270	2373.197266	101.365089
782.101379	1091.360962	2343.107666	2369.239990	102.087669
782.413452	1092.500977	2335.429199	2359.991455	101.976158
782.725403	1091.683716	2324.244873	2349.904053	102.081779
783.037292	1092.586914	2315.189941	2336.719727	101.760979
783.349182	1094.264648	2301.854980	2325.556885	101.962746
783.661072	1094.049561	2294.843262	2317.211914	101.862823
783.972839	1094.845337	2286.003662	2309.146240	101.942863
784.284546	1096.609009	2271.679443	2300.048584	102.414253
784.596191	1097.211182	2261.699463	2290.928955	102.510071
784.907898	1095.383057	2254.236084	2285.229492	102.674492
785.219421	1096.652100	2247.138428	2280.777100	102.923866
785.530884	1095.189453	2243.331787	2269.378174	102.268570
785.842346	1094.737793	2236.341553	2262.839355	102.321106
786.153748	1096.479858	2227.588135	2255.978271	102.509941
786.465149	1096.845581	2220.232178	2255.935303	103.178169
786.776428	1098.093018	2214.403320	2251.913330	103.360176
787.087646	1100.114746	2210.489014	2253.117920	103.839149
787.398804	1100.028809	2215.650879	2258.666992	103.855797
787.709961	1101.448242	2228.491211	2271.873047	103.849174
788.021057	1103.448486	2243.998535	2292.327148	104.237305
788.332031	1105.255127	2260.581299	2312.050049	104.454910
788.643005	1103.792725	2278.411377	2327.729492	104.198647
788.953918	1105.513306	2290.907715	2343.193604	104.410843
789.264832	1108.137329	2298.671875	2355.947754	104.810936
789.575623	1107.040527	2307.898926	2367.992432	105.004211
789.886353	1104.803589	2315.555664	2371.713135	104.638229
790.197083	1102.480835	2321.470459	2378.552979	104.682770
790.507690	1098.695313	2320.459473	2376.810791	104.612289
790.818359	1099.792236	2312.114258	2367.540771	104.571930
791.128845	1098.394287	2292.391357	2353.474365	105.115845
791.439331	1097.297363	2270.732666	2328.998291	104.965385
791.749756	1095.619629	2247.246338	2300.650391	104.637268
792.060120	1096.092896	2224.662842	2277.937988	104.720589
792.370483	1097.361694	2201.928711	2259.634766	105.224312
792.680786	1093.597778	2184.206055	2241.976807	105.297112
792.990967	1093.619263	2169.795898	2224.705811	105.102318
793.301086	1095.189453	2154.396240	2209.671631	105.218567
793.611267	1093.275269	2141.577393	2197.627197	105.346725
793.921326	1095.254028	2130.070557	2187.238770	105.524475
794.231323	1095.834839	2122.757568	2182.894287	105.856010
794.541260	1097.576782	2120.929443	2175.882324	105.369888
794.851074	1098.308105	2121.144287	2172.635010	105.034111
795.161011	1099.297607	2123.252197	2178.420410	105.387756
795.470764	1099.512573	2126.284912	2181.582275	105.385551
795.780518	1099.598755	2132.049072	2189.905762	105.603821
796.090149	1102.050659	2141.147217	2200.509521	105.712875
796.399780	1099.663208	2146.158447	2210.704102	106.167793
796.709412	1098.458618	2155.600586	2219.350342	106.030388
797.018860	1099.512573	2160.504395	2225.028320	106.081474
797.328308	1100.222412	2166.117920	2231.072021	106.093849
797.637756	1098.953369	2165.515625	2230.297852	106.073929
797.947205	1098.738403	2166.655518	2234.491943	106.352219
798.256470	1097.942505	2161.364502	2235.631836	106.983803
798.565674	1098.243652	2157.278076	2231.717529	107.028992
798.874817	1099.125488	2148.309082	2224.533936	107.265160
799.183960	1098.501831	2141.921387	2213.736816	106.882698
799.493103	1098.480225	2131.447021	2202.144043	106.844078
799.802124	1101.749512	2121.531494	2190.228516	106.736443
800.111084	1102.265503	2105.830811	2181.560791	107.546097
800.419983	1103.319458	2098.023438	2172.591553	107.496513
800.728821	1102.846313	2086.774658	2162.676514	107.714165
801.037659	1104.997070	2080.709473	2154.137695	107.525604
801.346436	1102.781738	2071.482666	2140.286621	107.102707
801.655151	1102.953979	2065.804443	2131.747803	106.848763
801.963745	1103.642090	2057.674316	2123.661133	106.916626
802.272400	1102.201050	2050.490479	2116.047119	106.913147
802.580933	1102.201050	2039.693359	2108.476318	107.336906
802.889404	1100.630981	2028.745972	2097.958984	107.457375
803.197815	1099.082520	2021.282837	2091.936768	107.661453
803.506226	1099.297607	2016.185425	2086.495361	107.668327
803.814575	1100.566528	2007.926147	2083.032471	108.277458
804.122864	1101.190308	2004.979614	2072.751709	107.498657
804.431030	1100.007324	2001.473877	2070.622314	107.670662
804.739197	1102.201172	2001.990112	2071.547119	107.730370
805.047241	1102.416138	2005.754028	2068.450195	106.940498
805.355408	1101.426758	2007.345703	2068.363770	106.735489
805.663391	1099.146973	2007.990601	2072.880615	107.139847
805.971313	1099.168457	2010.550049	2074.106445	106.973633
806.279175	1098.286621	2015.131226	2077.590820	106.812454
806.587036	1097.641479	2015.045410	2076.300293	106.676979
806.894836	1098.566284	2019.046021	2077.225342	106.320541
807.202576	1098.351074	2019.497314	2070.794434	105.568832
807.510193	1096.888550	2016.873535	2076.063965	106.433846
807.817810	1095.210938	2012.937622	2072.622559	106.503563
808.125427	1093.791504	2003.044067	2066.256104	106.952087
808.432922	1094.114136	1993.773804	2060.664063	107.435066
808.740295	1094.587280	1982.503540	2051.114258	107.727158
809.047729	1097.576904	1975.276978	2043.178101	107.736259
809.355103	1097.039185	1967.017944	2031.155029	107.372261
809.662415	1098.329590	1958.005981	2019.626831	107.167915
809.969604	1100.652466	1948.585449	2012.528931	107.541100
810.276794	1098.867310	1934.863403	2003.495728	108.209648
810.583923	1098.996460	1925.744141	1997.795776	108.715073
810.890991	1101.254761	1915.011597	1989.902466	109.203102
811.197998	1102.093628	1908.214844	1984.116821	109.415703
811.505005	1103.018433	1904.429321	1976.266357	108.963821
811.811829	1101.706421	1894.557129	1969.641846	109.470222
812.118713	1101.899902	1888.190918	1964.350830	109.685966
812.425537	1099.835205	1879.695313	1956.457520	109.843071
812.732300	1098.222168	1872.963257	1950.155762	109.963654
813.038940	1097.684448	1866.187988	1943.918335	110.114510
813.345581	1098.845825	1863.585571	1935.659302	109.424606
813.652100	1099.060913	1860.918823	1926.260254	108.576591
813.958740	1097.426270	1856.810913	1919.377441	108.239105
814.265137	1096.953125	1852.681152	1909.914063	107.573212
814.571533	1097.921021	1844.830811	1904.666138	108.011055
814.877930	1098.329590	1838.356934	1899.224609	108.225060
815.184265	1099.039429	1836.184448	1895.718750	108.076332
815.490540	1097.770386	1834.356323	1891.137817	107.708740
815.796692	1097.254150	1834.635864	1886.878906	107.084938
816.102844	1099.211426	1837.539551	1892.686035	107.469101
816.408936	1100.523438	1839.324341	1898.041504	107.947632
816.714966	1099.211426	1841.475098	1900.106201	107.898956
817.020935	1100.673950	1842.270996	1902.042114	108.059784
817.326843	1103.964722	1845.712402	1905.741455	108.092918
817.632690	1102.158081	1852.294067	1911.548828	107.899200
817.938477	1101.835449	1856.961304	1915.570801	107.761551
818.244263	1101.792480	1867.629272	1921.786621	107.071655
818.549988	1100.760010	1873.328857	1931.400513	107.516693
818.855652	1103.470093	1885.846558	1947.510254	107.881592
819.161194	1103.706665	1902.515503	1968.932129	108.314461
819.466797	1103.771118	1925.163330	1991.709351	108.101616
819.772278	1103.255005	1952.435425	2025.906982	108.652054
820.077698	1102.738770	1988.138794	2065.503174	108.737785
820.383057	1101.813843	2028.810669	2116.413086	109.450134
820.688354	1098.673706	2080.752441	2175.065430	109.603401
820.993652	1101.663330	2157.772705	2262.194580	109.887413
821.298828	1101.684814	2304.586670	2420.730225	109.655281
821.604004	1100.630981	2572.469482	2727.434570	110.528671
821.909058	1099.835205	2981.638184	3173.403809	110.190529
822.214111	1096.953125	3465.762695	3710.244629	110.320877
822.519165	1097.985474	3929.153320	4217.511719	110.185143
822.824036	1096.824097	4320.793457	4652.081543	110.275780
823.128906	1095.361450	4639.757813	5000.339844	110.173302
823.433716	1096.178833	4895.488281	5286.160156	110.282707
823.738525	1094.673340	5104.998047	5515.930664	110.246864
824.043213	1094.049683	5264.351074	5692.404297	110.264320
824.347900	1090.887817	5364.987793	5805.020020	110.295319
824.652466	1090.414551	5375.397949	5814.333008	110.243568
824.957031	1093.103149	5241.897461	5658.356934	110.038086
825.261536	1093.318237	4947.731445	5341.328125	110.211586
825.565979	1093.167725	4563.447266	4907.898926	109.925758
825.870300	1095.705688	4180.711426	4488.169434	109.966202
826.174622	1097.125122	3872.071045	4145.309082	109.846619
826.478821	1098.157593	3660.776367	3909.538330	109.707344
826.783142	1096.867188	3533.771240	3770.790039	109.726227
827.087280	1097.469482	3464.859375	3685.811035	109.333130
827.391357	1099.361938	3414.552246	3631.438965	109.367989
827.695435	1101.211670	3371.278320	3580.486572	109.215950
827.999451	1102.416138	3325.917725	3532.631104	109.296753
828.303406	1102.179565	3276.857910	3482.818604	109.470871
828.607239	1101.964478	3237.540771	3429.048340	108.967499
828.911011	1102.459106	3190.309326	3384.268799	109.289917
829.214844	1099.942749	3143.464844	3334.972412	109.371452
829.518616	1098.609375	3076.682617	3263.716309	109.455345
829.822205	1098.781372	2972.583496	3151.573242	109.552231
830.125793	1098.673706	2829.640869	2992.457031	109.406082
830.429382	1099.168457	2664.308838	2817.166260	109.766373
830.732849	1098.824341	2509.278564	2645.833252	109.681610
831.036316	1096.824097	2377.025635	2504.073730	109.924072
831.339661	1096.651978	2268.861816	2386.295898	110.018181
831.642944	1093.748413	2178.850830	2288.584961	110.112793
831.946228	1096.286377	2102.174561	2210.747070	110.793694
832.249512	1098.222046	2045.307129	2147.298584	110.768982
832.552673	1099.082275	2010.528564	2104.755371	110.338165
832.855774	1102.932373	1996.849487	2091.485107	110.586624
833.158813	1104.997192	2013.561401	2111.293945	110.756813
833.461731	1103.921753	2059.653076	2162.074463	110.716545
833.764771	1103.900269	2119.768066	2225.845947	110.442093
834.067627	1103.104492	2185.711914	2296.714844	110.253296
834.370422	1102.975464	2241.912354	2357.926758	110.186203
834.673157	1101.663452	2288.176025	2408.750000	110.162048
834.975891	1101.900024	2330.245850	2449.701416	109.724915
835.278564	1098.308105	2362.443115	2482.823975	109.522781
835.581177	1096.910156	2382.402588	2502.439209	109.337791
835.883728	1095.985229	2384.703857	2509.386230	109.674911
836.186218	1092.802002	2366.636963	2491.319336	109.787956
836.488647	1090.307129	2323.083252	2443.463867	109.764999
836.791077	1092.092285	2254.881348	2366.357666	109.586975
837.093384	1090.586792	2176.441650	2277.271484	109.285759
837.395630	1090.737305	2090.258789	2184.098633	109.388474
837.697815	1093.017090	2016.034790	2099.787109	109.073753
838.000061	1094.286255	1949.897705	2027.627441	109.084702
838.302124	1096.006714	1888.363281	1961.941895	109.286049
838.604126	1098.996338	1832.979980	1901.740967	109.368187
838.906128	1098.566284	1788.243042	1851.369141	109.153000
839.208069	1100.910645	1753.615112	1810.675903	108.742210
839.510010	1100.050293	1732.945801	1783.081299	107.921608
839.811829	1101.061157	1722.105835	1765.788696	107.033768
840.113586	1101.985962	1716.105103	1760.691284	107.260185
840.415222	1102.351685	1711.566895	1761.788208	108.243607
840.716919	1102.050537	1712.921875	1761.637573	107.974792
841.018555	1100.630981	1710.857056	1761.314941	108.268723
841.320068	1100.523560	1709.136353	1759.336060	108.248215
841.621521	1097.641357	1705.630737	1754.819458	108.090393
841.922974	1097.512329	1703.781128	1753.937622	108.272980
842.224365	1096.221802	1698.167480	1749.915649	108.596817
842.525635	1095.727173	1688.209351	1739.462769	108.650627
842.826965	1097.619873	1671.691040	1721.116333	108.609612
843.128174	1098.673706	1646.139526	1696.360596	109.173370
843.429260	1097.447754	1618.781250	1666.055786	109.068001
843.730408	1101.663208	1595.208496	1636.546875	108.375801
844.031433	1103.362427	1574.797241	1612.070679	107.906380
844.332397	1105.384277	1555.224976	1588.196899	107.329689
844.633362	1105.083130	1538.384277	1566.710205	106.537239
844.934204	1106.029419	1523.844604	1550.407104	106.357475
845.235046	1107.234009	1509.713989	1534.104004	106.059929
845.535828	1108.266357	1497.755371	1520.080811	105.731979
845.836487	1108.546021	1485.108521	1506.982422	105.808838
846.137146	1107.642700	1474.763428	1494.744263	105.442581
846.437744	1105.556396	1465.708496	1485.022705	105.362793
846.738281	1105.147583	1457.642944	1476.785278	105.430519
847.038757	1102.179565	1449.856934	1468.741211	105.431549
847.339172	1099.749146	1439.275024	1460.073364	106.125702
847.639526	1098.329590	1433.338867	1456.976196	107.055725
847.939819	1097.748901	1427.101563	1452.481079	107.705879
848.240112	1097.512207	1421.896606	1445.082275	107.147591
848.540283	1096.479980	1416.369141	1439.640747	107.274895
848.840393	1097.533813	1413.573120	1437.382446	107.533661
849.140564	1094.888428	1410.583374	1432.370972	106.901474
849.440552	1096.888672	1405.034302	1428.671509	107.670792
849.740540	1097.082153	1402.818970	1426.628418	107.787567
850.040405	1098.910400	1400.259644	1423.380615	107.672485
850.340210	1097.985596	1397.183838	1420.649048	107.842697
850.640137	1098.695435	1395.613770	1417.487427	107.366890
850.939819	1098.652344	1392.194092	1411.895386	106.711578
851.239502	1096.910156	1388.193481	1410.776978	107.753105
851.539185	1096.178955	1387.333130	1409.206787	107.512741
851.838745	1095.748779	1385.676880	1407.099121	107.388809
852.138245	1094.458130	1379.504272	1401.808105	107.824638
852.437744	1095.920776	1376.944824	1401.528442	108.747871
852.737122	1094.608643	1377.912598	1399.700317	107.690582
853.036499	1095.641113	1375.912354	1394.516846	106.638031
853.335815	1094.802246	1372.449585	1392.280029	107.142311
853.635010	1095.963623	1369.954712	1387.376221	106.358421
853.934204	1095.899170	1371.395630	1388.580566	106.237808
854.233276	1095.985229	1372.707886	1386.666504	105.044266
854.532410	1095.791748	1372.428223	1381.009888	103.102142
854.831482	1096.157349	1368.943848	1378.837402	103.626846
855.130371	1094.974487	1366.298340	1377.676025	104.193398
855.429260	1096.049927	1364.212158	1375.976929	104.387184
855.728088	1094.479736	1360.727783	1372.492676	104.418770
856.026855	1094.221558	1355.888550	1372.686157	106.419456
856.325623	1094.264526	1354.361450	1371.481689	106.582253
856.624329	1094.737793	1354.124878	1371.008667	106.509109
856.922913	1095.124878	1352.404175	1371.503296	107.423500
857.221436	1097.426270	1348.661743	1365.975708	106.891525
857.519958	1097.727417	1345.715088	1364.642212	107.632286
857.818420	1097.942383	1343.327759	1363.179688	108.090103
858.116821	1099.856567	1341.951172	1361.760132	108.182320
858.415161	1102.179565	1343.241699	1359.308228	106.664894
858.713379	1102.738770	1342.553589	1355.823975	105.533600
859.011658	1107.018799	1343.542847	1354.727051	104.728569
859.309814	1108.115723	1343.306274	1351.844849	103.630493
859.607910	1107.470581	1341.456543	1352.210571	104.596016
859.905945	1108.868652	1340.897339	1349.629639	103.763458
860.203979	1107.707153	1340.209106	1348.016479	103.357979
860.501953	1107.879272	1338.531494	1349.565063	104.783638
860.799744	1107.707153	1335.713989	1347.693848	105.254166
861.097656	1109.642822	1335.950439	1346.726074	104.761497
861.395325	1109.513794	1336.337646	1345.112915	103.868759
861.693115	1108.416870	1335.090088	1342.316895	103.188202
861.990784	1108.804199	1335.434326	1342.273804	103.017906
862.288330	1107.384521	1333.261963	1342.230835	103.970680
862.585815	1104.739136	1334.401855	1338.725098	101.882431
862.883301	1106.244629	1334.294434	1335.369751	100.471527
863.180786	1106.072632	1332.702881	1333.477173	100.341652
863.478149	1107.018799	1330.745605	1333.477051	101.220886
863.775452	1105.319824	1330.272339	1332.552246	101.013504
864.072693	1108.072876	1331.455200	1333.971680	101.126534
864.369873	1109.750366	1331.390747	1335.842896	102.008728
864.667114	1108.997681	1328.680664	1337.735596	104.121819
864.964111	1108.223511	1327.970947	1339.778931	105.373436
865.261169	1106.653198	1327.347168	1341.499634	106.412712
865.558105	1105.190796	1328.938843	1339.908081	104.902496
865.855042	1105.362793	1327.261230	1343.779419	107.444031
866.151917	1103.878662	1326.099731	1347.715454	109.727127
866.448730	1100.652466	1325.863159	1349.070435	110.304695
866.745422	1102.373047	1327.454590	1348.446777	109.326485
867.042114	1100.781616	1327.583862	1347.435791	108.752968
867.338806	1096.609009	1324.422241	1345.865723	109.412743
867.635376	1094.673218	1321.066895	1342.790039	109.595299
867.931824	1096.458496	1322.765991	1339.972534	107.603172
868.228271	1096.781128	1320.077515	1338.875610	108.418449
868.524658	1096.307861	1319.561401	1336.337646	107.514435
868.821045	1098.824341	1318.120361	1337.843262	108.993736
869.117310	1098.458618	1315.474731	1336.402222	109.643288
869.413574	1096.888550	1314.958740	1332.745850	108.156601
869.709717	1097.856567	1312.205566	1329.971313	108.288231
870.005859	1095.038940	1308.957886	1327.476440	108.656807
870.301880	1096.437012	1308.463257	1326.895630	108.693436
870.597900	1095.490601	1308.334106	1323.948975	107.336311
870.893860	1095.813232	1311.990479	1327.454956	107.153610
871.189636	1092.371948	1311.753906	1327.218262	107.049057
871.485535	1092.845093	1311.108643	1328.272217	107.863693
871.781311	1092.006348	1310.269897	1330.508911	109.272743
872.077026	1090.264160	1310.700073	1330.401367	108.937424
872.372681	1091.963379	1311.818481	1330.573486	108.530624
872.668274	1093.210815	1312.807861	1334.358887	109.813896
872.963806	1092.715942	1314.592896	1337.111816	110.149284
873.259338	1093.275269	1318.679565	1338.251831	108.683182
873.554688	1093.812988	1319.346191	1340.746704	109.488853
873.850098	1096.695190	1320.507813	1343.757813	110.388153
874.145447	1096.501465	1318.335449	1339.348755	109.472534
874.440674	1100.265503	1317.582520	1340.123047	110.372185
874.735840	1099.362183	1320.335693	1341.714722	109.674927
875.031006	1101.577393	1323.110107	1341.693237	108.388435
875.326050	1100.437378	1323.970581	1342.768555	108.409477
875.621094	1101.190186	1325.389893	1339.370361	106.235718
875.916077	1103.599121	1325.583618	1333.498535	103.565529
876.210999	1106.502686	1326.917114	1333.885742	103.161606
876.505798	1107.363037	1322.895142	1335.348267	105.777855
876.800598	1106.997192	1321.776855	1333.132935	105.287315
877.095337	1104.007690	1322.077881	1333.068359	105.039879
877.390015	1106.201538	1323.088745	1336.531250	106.197922
877.684692	1105.728516	1322.335938	1340.811401	108.529472
877.979187	1107.470581	1319.884033	1338.337891	108.687706
878.273804	1105.534790	1319.862549	1337.972168	108.449501
878.568237	1106.136963	1322.701660	1337.520630	106.842743
878.862610	1103.061401	1325.884766	1344.446167	108.330093
879.156921	1100.889160	1330.896118	1353.286011	109.734444
879.451172	1098.071533	1337.219604	1359.200562	109.191360
879.745422	1098.759888	1348.382202	1368.578125	108.090591
880.039612	1097.555298	1361.480591	1382.859375	108.100319
880.333679	1098.587769	1381.999146	1403.163086	107.467567
880.627686	1097.017578	1415.164673	1438.586792	107.362038
880.921692	1096.221802	1469.020752	1497.518799	107.644348
881.215698	1096.350830	1556.386353	1593.573730	108.083588
881.509460	1099.362183	1671.239380	1723.675903	109.169189
881.803345	1099.469604	1812.289063	1881.953491	109.773079
882.097046	1101.512817	1959.898804	2044.618774	109.869682
882.390808	1102.115112	2098.131104	2197.562256	109.982887
882.684448	1103.685059	2225.781250	2337.364746	109.944199
882.978027	1101.082642	2336.439941	2460.906738	110.075371
883.271545	1102.566772	2432.086426	2567.264160	110.167412
883.565002	1103.147583	2508.117432	2651.338867	110.193916
883.858398	1102.588379	2560.855225	2704.420898	109.844955
884.151733	1101.211670	2581.567383	2720.143555	109.361008
884.445068	1100.846069	2557.413818	2692.462646	109.271713
884.738281	1099.233032	2489.964600	2614.840088	108.979126
885.031433	1099.168335	2383.198486	2495.707031	108.762138
885.324585	1100.738403	2262.624268	2361.346436	108.496719
885.617676	1098.738281	2142.071777	2227.157959	108.155220
885.910645	1097.576904	2026.401489	2099.400146	107.859253
886.203552	1099.168457	1921.829590	1983.364136	107.479935
886.496521	1099.942749	1824.979004	1877.264893	107.211487
886.789368	1100.673950	1740.645996	1783.425415	106.684578
887.082153	1102.760254	1661.023071	1702.834473	107.489555
887.374817	1103.728149	1595.316040	1631.858154	107.433487
887.667480	1103.577637	1537.825073	1569.764526	107.355125
887.960083	1104.222900	1492.916382	1521.392944	107.326225
888.252625	1103.642212	1455.427734	1483.259033	107.911438
888.545166	1103.190552	1428.241699	1456.438599	108.674606
888.837524	1105.599487	1404.969849	1432.156006	109.081108
889.129883	1107.255493	1386.171875	1412.605103	109.477112
889.422241	1106.696411	1371.417358	1393.484497	108.335999
889.714478	1093.511841	1322.292847	1359.200562	116.132332
890.006714	1107.707153	1357.544556	1401.313477	117.518959
890.298767	1110.072998	1317.324585	1340.746826	111.301353
890.590881	1113.858398	1319.453735	1330.573486	105.408562
890.882935	1094.694824	1328.207642	1316.378174	94.934128
>>>>>End Processed Spectral Data<<<<<
