Jaz Data File
++++++++++++++++++++++++++++++++++++
Date: Mon Apr 22 19:26:53 2019
User: jaz
Dark Spectrum Present: Yes
Reference Spectrum Present: Yes
Processed Spectrum Present: Yes
Spectrometers: JAZA2928
Integration Time (usec): 40000 (JAZA2928)
Spectra Averaged: 10 (JAZA2928)
Boxcar Smoothing: 5 (JAZA2928)
Correct for Electrical Dark: No (JAZA2928)
Strobe/Lamp Enabled: Yes (JAZA2928)
Correct for Detector Non-linearity: No (JAZA2928)
Correct for Stray Light: No (JAZA2928)
Number of Pixels in Processed Spectrum: 2048
>>>>>Begin Processed Spectral Data<<<<<
W	D	R	S	P
190.104553	0.000000	0.000000	0.000000	0.000000
190.488098	0.000000	0.000000	0.000000	0.000000
190.871613	1077.423828	1084.994751	1058.733276	-246.872833
191.255096	1080.499390	1079.079956	1084.284912	-266.692474
191.638535	0.000000	0.000000	0.000000	0.000000
192.021942	903.294739	908.865295	901.315857	-35.523952
192.405334	1004.317993	1010.039124	1003.930725	-6.769083
192.788696	1107.599609	1112.288330	1106.674683	-19.726633
193.172012	1111.471069	1116.052246	1113.019531	33.800529
193.555313	1116.138306	1118.654663	1115.191895	-37.610363
193.938568	1122.375488	1122.956299	1117.063354	-914.606995
194.321793	1125.386597	1126.505127	1121.364868	-359.554718
194.704987	1126.655640	1129.473267	1123.171387	-123.659126
195.088150	1127.429810	1129.387207	1122.762817	-238.428436
195.471298	1126.505249	1131.710083	1123.020874	-66.944977
195.854401	1127.494629	1132.054199	1121.644287	-128.309067
196.237457	1129.064575	1128.957031	1123.063843	5579.795898
196.620499	1129.043091	1130.441040	1122.009888	-503.108612
197.003494	1127.171875	1130.140137	1121.042114	-206.510117
197.386475	1126.999878	1131.129395	1121.601440	-130.728073
197.769424	1126.419067	1132.441406	1121.708862	-78.212219
198.152344	1123.365112	1134.527832	1122.956421	-3.661217
198.535217	1120.934570	1135.947266	1121.128174	1.289599
198.918076	1121.149658	1138.098022	1122.160645	5.965097
199.300903	1121.838013	1139.668091	1122.547729	3.980447
199.683670	1123.838257	1144.421387	1122.805786	-5.016101
200.066422	1123.730591	1145.023560	1122.956299	-3.636374
200.449142	1121.967041	1147.884277	1122.139038	0.663640
200.831848	1122.719849	1149.174683	1122.031372	-2.602460
201.214508	1123.537109	1149.002686	1122.461670	-4.223111
201.597137	1122.891846	1150.120972	1120.912964	-7.267519
201.979736	1122.612183	1152.874146	1119.644043	-9.808153
202.362274	1122.633789	1149.088623	1119.213989	-12.926937
202.744827	1121.257202	1147.625977	1116.353394	-18.597029
203.127319	1119.171021	1146.055908	1114.030396	-19.120872
203.509796	1116.525513	1142.786621	1116.977051	1.719417
203.892227	1113.406860	1136.872070	1114.697144	5.498707
204.274643	1110.567749	1137.151489	1112.933472	8.899134
204.657013	1110.804321	1134.850342	1112.589355	7.423408
205.039352	1108.223389	1132.441406	1111.707520	14.386524
205.421661	1104.932617	1135.796753	1109.965454	16.306425
205.803940	1103.964722	1135.516968	1107.922363	12.543138
206.186188	1103.771118	1133.344727	1109.901001	20.727545
206.568405	1101.921387	1134.248169	1109.513794	23.486431
206.950592	1103.297974	1136.119263	1112.073364	26.736885
207.332748	1101.340698	1133.882446	1109.901001	26.305601
207.714859	1099.964233	1136.269775	1105.750000	15.936318
208.096939	1099.598511	1137.732422	1106.610352	18.387415
208.478989	1098.695190	1137.280762	1108.266479	24.805357
208.861008	1098.931763	1138.291626	1107.879272	22.732573
209.243011	1099.318848	1140.765137	1107.965210	20.861609
209.624969	1098.652222	1139.410034	1107.255371	21.107977
210.006897	1098.480103	1140.377808	1108.545776	24.024405
210.388794	1097.469238	1141.345703	1108.137207	24.313646
210.770645	1097.426270	1141.603882	1107.406128	22.590307
211.152481	1097.146606	1140.549927	1108.718018	26.660198
211.534286	1097.404785	1143.152344	1108.051270	23.272245
211.916061	1097.490723	1141.238159	1109.513794	27.482916
212.297791	1097.985474	1142.119995	1111.277466	30.116997
212.679489	1097.125122	1143.195435	1109.729004	27.357925
213.061157	1093.662354	1142.313599	1111.191528	36.030270
213.442795	1093.812988	1142.786743	1111.578613	36.275806
213.824402	1094.071167	1142.829712	1113.062622	38.950005
214.205963	1094.823730	1141.496216	1114.094971	41.290367
214.587524	1093.705444	1141.195190	1113.643433	41.983776
214.969025	1094.952881	1142.937378	1115.837158	43.522968
215.350510	1093.554932	1145.948486	1115.299561	41.502487
215.731949	1092.823730	1144.572021	1117.988037	48.628284
216.113358	1092.221558	1147.841309	1118.633301	47.486267
216.494736	1093.361328	1147.239014	1118.461182	46.586735
216.876083	1093.124878	1145.324707	1121.343262	54.058384
217.257401	1094.823975	1146.765747	1119.902222	48.281464
217.638702	1094.910034	1149.389771	1120.956055	47.808640
218.019943	1095.791748	1151.841553	1120.869995	44.742790
218.401169	1094.006592	1152.142700	1121.493896	47.280952
218.782349	1094.372070	1154.788208	1123.666138	48.487156
219.163498	1094.436646	1158.272583	1125.236206	48.247997
219.544632	1098.286621	1158.659668	1125.730957	45.457928
219.925705	1102.416138	1162.423584	1129.838989	45.699081
220.306778	1103.104370	1163.929199	1134.613647	51.803314
220.687805	1101.082520	1168.661011	1135.646118	51.145859
221.068802	1101.770996	1176.640503	1136.377319	46.222187
221.449738	1101.985840	1182.598145	1141.023071	48.425896
221.830673	1099.340454	1186.620117	1142.141479	49.038944
222.211563	1098.394043	1191.932617	1146.550659	51.483162
222.592438	1098.759766	1200.084106	1147.368042	47.972950
222.973267	1099.060913	1206.730225	1149.131714	46.504246
223.354065	1097.727417	1211.655518	1148.895020	44.912189
223.734848	1093.791382	1217.828369	1150.271606	45.534985
224.115555	1090.436157	1228.302734	1149.260742	42.667763
224.496262	1092.694458	1238.497559	1148.421875	38.221008
224.876923	1092.178223	1246.498535	1151.088745	38.174187
225.257568	1091.016846	1255.639526	1152.744995	37.496746
225.638168	1088.113281	1265.554688	1157.175659	38.921230
226.018723	1090.479248	1277.147583	1163.047363	38.875427
226.399277	1092.328735	1291.923462	1167.047729	37.435356
226.779785	1094.759277	1309.861206	1175.113403	37.356300
227.160263	1093.726929	1333.046875	1181.372192	36.622631
227.540695	1093.103149	1363.351685	1194.212646	37.413521
227.921112	1091.984741	1408.217529	1208.042114	36.699982
228.301483	1092.501099	1466.525879	1229.012573	36.497974
228.681824	1092.006348	1543.460083	1254.413452	35.974251
229.062134	1095.339966	1631.212891	1282.696411	34.962849
229.442413	1095.404419	1713.438232	1307.903809	34.383133
229.822647	1099.469604	1782.349976	1323.862915	32.859829
230.202881	1100.846069	1832.011841	1337.197876	32.325336
230.583054	1100.674072	1871.651245	1345.822632	31.797123
230.963196	1098.372681	1904.106934	1354.490356	31.786867
231.343292	1097.576782	1930.819946	1363.975464	31.971302
231.723404	1097.146606	1946.348755	1364.168945	31.443907
232.103439	1098.372681	1940.670654	1361.889160	31.285423
232.483459	1098.630737	1913.054321	1350.425415	30.916918
232.863434	1096.802612	1867.650757	1334.896606	30.887276
233.243393	1091.662109	1814.934814	1316.335083	31.063383
233.623306	1092.909668	1767.294434	1301.860229	30.983879
234.003174	1092.242920	1737.763672	1294.224854	31.289766
234.383041	1089.382324	1724.880371	1290.310425	31.617422
234.762848	1090.930786	1717.675293	1290.073853	31.774202
235.142639	1091.855591	1711.932495	1287.600464	31.567839
235.522385	1094.135498	1708.491089	1284.589355	31.000589
235.902115	1095.834839	1710.212036	1282.675049	30.411320
236.281799	1095.641113	1716.384766	1287.858521	30.965666
236.661438	1096.178833	1729.009888	1291.687012	30.894215
237.041077	1095.576660	1740.946899	1293.966797	30.740515
237.420654	1098.458618	1747.033569	1296.633789	30.555477
237.800217	1097.963989	1755.550659	1300.548340	30.807247
238.179733	1098.351074	1761.530029	1303.258301	30.897728
238.559219	1100.372925	1769.509644	1302.871094	30.262600
238.938690	1098.265137	1782.220703	1304.742310	30.188683
239.318100	1096.630493	1800.158325	1306.979126	29.899120
239.697510	1097.017578	1821.687988	1313.625122	29.890491
240.076859	1097.168091	1847.260986	1322.551025	30.047337
240.456177	1098.178955	1891.976440	1330.358521	29.249220
240.835464	1096.651855	1948.263184	1343.542847	28.991041
241.214722	1097.275757	2024.745728	1364.835815	28.848379
241.593948	1097.963989	2132.092285	1392.860840	28.516466
241.973129	1097.856567	2259.333740	1425.639160	28.221182
242.352295	1097.297363	2406.750000	1467.988403	28.308855
242.731415	1097.856323	2553.327148	1509.283691	28.267649
243.110519	1095.877686	2674.417480	1545.395752	28.476828
243.489578	1095.877686	2769.440186	1572.194946	28.461277
243.868607	1096.049805	2835.943115	1591.982300	28.503614
244.247604	1097.684448	2886.035156	1606.392578	28.445658
244.626541	1098.910278	2917.953125	1615.339844	28.390181
245.005493	1099.792114	2945.719727	1621.985962	28.288967
245.384369	1100.114868	2970.948975	1626.631714	28.143427
245.763229	1100.609497	2998.909180	1635.213379	28.162249
246.142059	1102.760254	3052.937500	1649.150757	28.017479
246.520859	1102.351685	3154.261475	1672.336060	27.778238
246.899612	1100.889038	3308.366943	1713.932739	27.771225
247.278336	1101.942993	3494.518799	1758.626465	27.446716
247.657043	1102.394653	3664.540039	1805.643066	27.447638
248.035690	1101.405273	3803.309570	1840.378540	27.350090
248.414322	1100.867676	3921.002197	1870.059448	27.275003
248.792908	1099.297607	4008.367432	1893.653809	27.306192
249.171478	1099.835205	4061.642822	1909.591431	27.339933
249.550003	1101.104126	4068.827148	1912.064819	27.326023
249.928482	1100.588013	4035.661621	1903.160522	27.344202
250.306961	1099.620117	3942.724854	1878.361816	27.390539
250.685364	1099.362061	3780.747803	1834.721802	27.424616
251.063782	1100.652466	3577.324951	1779.209717	27.397942
251.442123	1101.168701	3379.536865	1728.644409	27.540575
251.820450	1102.416138	3241.261963	1694.037842	27.660793
252.198761	1102.201050	3168.177490	1673.132080	27.634922
252.576996	1101.276245	3111.740479	1658.549561	27.718639
252.955246	1101.921509	3063.153809	1646.332886	27.758638
253.333420	1101.039673	3017.792969	1635.750854	27.896713
253.711578	1100.437500	2990.306152	1627.449097	27.886150
254.089706	1100.308472	2965.872803	1619.426514	27.826328
254.467804	1098.716675	2948.537354	1615.296875	27.925961
254.845871	1099.856567	2933.202148	1609.790894	27.814413
255.223877	1098.996338	2907.005371	1601.402832	27.787830
255.601898	1100.480347	2870.334229	1590.326172	27.677191
255.979828	1098.265137	2818.026367	1572.754028	27.590393
256.357727	1098.630737	2763.826172	1558.709106	27.629091
256.735657	1098.480225	2741.457764	1553.117065	27.671518
257.113525	1098.071411	2758.492432	1557.074585	27.643782
257.491333	1098.480347	2812.197754	1571.528076	27.603601
257.869110	1097.835083	2891.799072	1597.165527	27.833918
258.246887	1097.684448	3007.146729	1627.233887	27.732908
258.624573	1097.232788	3174.092285	1669.346558	27.547064
259.002289	1097.275757	3402.142090	1729.913330	27.447908
259.379944	1098.566284	3704.265625	1812.762207	27.408993
259.757538	1098.415649	4068.052490	1905.440552	27.175880
260.135162	1099.318970	4428.032715	1995.838745	26.932919
260.512665	1100.760010	4715.939453	2072.342773	26.875092
260.890228	1099.792114	4904.715332	2120.112305	26.815788
261.267700	1101.147095	5016.622070	2150.223389	26.793077
261.645142	1101.942871	5083.039063	2166.806152	26.747992
262.022552	1103.211914	5120.677734	2173.624268	26.643969
262.399994	1102.717285	5125.904297	2173.839355	26.623720
262.777313	1103.857178	5080.715820	2161.816406	26.602888
263.154602	1104.911011	4961.216309	2128.371338	26.539921
263.531921	1102.824707	4760.159180	2072.106201	26.502401
263.909149	1102.459106	4480.791504	1999.882324	26.564087
264.286377	1101.491333	4192.583984	1926.453857	26.688377
264.663574	1099.878174	3972.277100	1867.693848	26.730816
265.040710	1101.921509	3845.767090	1832.377441	26.621611
265.417816	1099.168457	3795.782227	1815.536743	26.565475
265.794891	1099.340576	3797.803955	1813.171021	26.453220
266.171936	1099.104004	3841.508057	1822.720581	26.386213
266.548950	1099.921265	3899.708740	1833.237915	26.191868
266.925934	1101.383789	3954.425049	1844.658691	26.052021
267.302887	1100.329834	4020.368896	1861.822144	26.078156
267.679810	1102.308594	4091.776367	1879.910522	26.011383
268.056671	1102.652710	4176.216797	1896.837158	25.839203
268.433502	1101.749512	4266.658203	1915.463013	25.710489
268.810333	1101.684814	4350.517578	1932.604980	25.575960
269.187073	1099.039429	4426.677734	1950.155518	25.577183
269.563843	1101.362305	4488.276855	1963.662598	25.459759
269.940521	1100.588013	4541.895996	1977.234253	25.474215
270.317200	1099.899780	4605.710449	1989.816406	25.384048
270.693848	1099.146973	4713.035645	2015.324951	25.351583
271.070435	1097.705933	4884.304199	2057.609619	25.350027
271.447021	1095.856323	5082.371582	2100.217285	25.193958
271.823547	1093.920532	5251.705078	2137.942383	25.110050
272.200043	1092.931152	5382.043457	2173.237305	25.187174
272.576538	1096.501465	5496.100098	2203.692383	25.165726
272.952972	1096.630493	5606.415527	2230.082764	25.133177
273.329346	1099.641602	5698.835449	2250.322021	25.019176
273.705688	1097.490723	5766.155762	2265.592529	25.020039
274.082062	1094.221558	5809.837891	2273.421387	25.006271
274.458344	1094.049438	5806.568848	2273.163086	25.020876
274.834595	1093.060059	5748.755371	2258.537598	25.033373
275.210846	1093.748413	5652.141113	2232.297852	24.976994
275.587006	1095.361572	5538.041016	2206.875244	25.018991
275.963165	1096.135864	5473.688965	2189.109863	24.967691
276.339294	1095.920898	5444.265625	2181.151855	24.957335
276.715393	1094.329224	5440.265137	2177.925537	24.933554
277.091461	1093.942017	5437.361816	2174.398438	24.875708
277.467438	1092.931152	5444.867676	2178.205322	24.937729
277.843445	1094.372192	5460.289551	2181.711182	24.905167
278.219452	1097.361816	5481.604004	2182.614502	24.753485
278.595337	1097.275757	5513.521484	2185.625488	24.644230
278.971191	1097.318726	5547.805664	2190.314209	24.559010
279.347046	1096.716553	5572.969727	2195.712891	24.551702
279.722870	1095.727051	5607.189453	2198.573486	24.445431
280.098663	1096.953125	5631.234863	2204.681641	24.430077
280.474396	1098.222168	5683.004883	2211.693359	24.286238
280.850098	1099.727539	5749.679688	2224.920898	24.197956
281.225800	1099.770630	5852.595703	2245.654541	24.109531
281.601440	1099.125488	5983.816895	2275.894775	24.090965
281.977051	1098.996338	6153.665527	2313.125244	24.019949
282.352600	1100.265503	6314.695801	2353.883057	24.041315
282.728149	1102.996948	6448.454590	2382.531982	23.936867
283.103668	1104.007935	6547.198242	2409.976074	23.992697
283.479156	1102.588379	6633.079590	2431.613037	24.030861
283.854553	1102.502319	6720.380859	2453.831055	24.054075
284.229950	1098.480347	6819.877930	2474.349854	24.047787
284.605347	1096.501587	6916.750000	2497.427734	24.069868
284.980652	1094.888428	7007.728516	2519.430664	24.092352
285.355988	1092.500977	7095.331055	2544.014160	24.180481
285.731201	1094.243042	7173.210938	2558.962402	24.094870
286.106445	1094.888428	7234.551758	2572.447754	24.065805
286.481659	1094.802368	7309.464355	2585.997803	23.994795
286.856781	1091.490112	7380.248047	2604.882080	24.065039
287.231934	1093.942017	7436.878418	2616.281250	24.000544
287.607025	1097.254272	7468.667480	2621.314209	23.920280
287.982056	1100.114868	7471.699707	2620.862305	23.867647
288.357086	1103.577637	7457.009766	2614.775635	23.785538
288.732086	1104.201294	7427.049805	2606.430664	23.758743
289.107025	1104.373413	7399.476563	2594.127930	23.665293
289.481934	1106.137085	7369.988770	2585.416992	23.616138
289.856842	1104.395020	7367.579590	2583.330566	23.613155
290.231659	1103.276611	7383.409668	2584.277100	23.582312
290.606506	1102.717407	7399.583984	2588.836914	23.600937
290.981262	1104.029419	7420.532715	2596.794678	23.632778
291.355988	1103.341064	7460.408203	2608.710205	23.680244
291.730713	1101.276245	7499.531250	2619.184570	23.723787
292.105377	1100.996582	7523.040527	2629.960205	23.808052
292.480011	1102.115112	7531.126953	2643.660889	23.977959
292.854614	1101.340698	7544.418945	2657.447754	24.151609
293.229187	1102.093628	7573.949707	2683.171631	24.430056
293.603729	1104.115356	7617.632324	2709.153320	24.641647
293.978241	1103.771240	7652.840332	2739.780273	24.980787
294.352692	1101.964478	7681.683105	2778.021729	25.473083
294.727081	1101.061035	7708.525391	2814.929443	25.938368
295.101501	1098.609253	7761.865234	2855.816162	26.371595
295.475830	1095.512085	7848.133301	2909.500244	26.863468
295.850189	1095.038940	7991.893555	2980.369385	27.336092
296.224457	1091.683716	8203.381836	3071.713867	27.841875
296.598694	1089.403809	8463.350586	3175.791504	28.294043
296.972931	1089.016602	8729.597656	3282.815430	28.712461
297.347107	1088.586426	8935.946289	3373.127441	29.112225
297.721283	1087.898071	9061.037109	3442.125244	29.526978
298.095367	1089.769409	9098.051758	3481.226807	29.862303
298.469452	1092.737427	9080.931641	3498.261475	30.113487
298.843475	1092.199707	9037.636719	3504.455566	30.360266
299.217529	1094.587158	8972.337891	3506.799805	30.620575
299.591492	1096.436890	8892.672852	3494.991943	30.765554
299.965424	1098.135864	8774.442383	3477.097412	30.990965
300.339325	1102.179565	8594.958008	3435.650879	31.142937
300.713196	1103.513062	8374.263672	3379.838135	31.307981
301.087036	1105.448730	8138.126465	3318.991455	31.475105
301.460815	1104.975586	7937.585938	3263.522461	31.591833
301.834564	1103.771118	7774.533203	3217.495117	31.686396
302.208282	1103.125854	7649.119141	3180.135742	31.729483
302.582001	1103.297974	7531.814453	3146.088379	31.777010
302.955658	1103.297974	7423.306641	3115.956055	31.845812
303.329254	1100.889038	7332.241699	3087.823242	31.886082
303.702820	1101.276245	7248.747070	3068.853271	32.006287
304.076416	1100.910645	7176.007813	3042.505615	31.959900
304.449921	1099.491089	7122.452637	3024.202881	31.956236
304.823395	1099.749146	7062.165527	3008.222412	32.008385
305.196838	1099.426636	7003.878418	2994.005615	32.087299
305.570251	1097.921021	6932.858887	2970.002686	32.084003
305.943604	1096.479980	6870.485840	2951.290527	32.123463
306.316986	1096.350952	6825.146973	2939.482910	32.173111
306.690277	1094.759399	6800.218750	2935.955322	32.270775
307.063507	1094.200073	6800.971680	2939.031006	32.327049
307.436768	1095.038940	6830.372070	2947.311523	32.295815
307.809937	1092.328979	6880.078125	2961.786377	32.300251
308.183136	1093.081665	6951.484375	2987.187500	32.331436
308.556244	1091.640747	7039.259277	3017.148193	32.374428
308.929321	1092.802002	7145.702637	3048.420898	32.308792
309.302399	1091.963379	7244.488770	3074.079834	32.216309
309.675446	1093.597778	7353.104492	3105.696777	32.144688
310.048401	1095.167969	7449.568359	3139.227539	32.167622
310.421356	1093.662354	7553.624512	3173.124268	32.190002
310.794281	1094.049438	7670.606445	3203.300537	32.072266
311.167145	1096.264771	7784.168945	3233.218018	31.952507
311.539978	1100.437378	7864.242676	3257.285400	31.888088
311.912781	1102.588135	7910.098145	3267.135986	31.796471
312.285553	1101.147095	7899.667480	3262.855713	31.796749
312.658295	1102.308472	7851.940430	3247.090576	31.776285
313.031006	1101.254639	7786.728027	3227.346191	31.801659
313.403656	1101.792358	7728.354980	3207.107178	31.770845
313.776276	1101.663208	7684.435547	3195.514160	31.808043
314.148865	1102.029053	7688.415527	3191.018799	31.716780
314.521454	1105.040161	7694.351563	3189.878906	31.639708
314.893982	1103.147583	7677.596680	3182.674072	31.630426
315.266449	1101.018311	7620.212891	3170.048584	31.737514
315.638885	1095.899292	7539.772949	3147.099854	31.831797
316.011322	1094.544189	7452.429199	3122.860107	31.902370
316.383667	1094.759277	7385.065430	3101.244385	31.898052
316.756042	1094.458130	7327.316895	3082.339111	31.893566
317.128326	1094.049561	7277.848145	3061.885010	31.822437
317.500610	1094.329102	7220.959473	3044.140625	31.825186
317.872833	1094.157104	7145.443848	3021.427979	31.848944
318.245087	1094.608643	7047.453613	2991.209229	31.860407
318.617218	1093.468872	6948.925293	2964.087646	31.946590
318.989319	1094.780762	6877.604980	2945.655273	32.006413
319.361420	1097.684448	6835.212402	2930.578125	31.945704
319.733490	1100.889160	6807.423828	2919.953125	31.876858
320.105530	1099.792114	6786.690430	2910.296143	31.836405
320.477509	1100.566528	6764.343750	2900.983398	31.788271
320.849457	1101.512817	6742.125488	2890.164551	31.710238
321.221375	1099.899780	6731.974609	2884.508057	31.686516
321.593231	1100.200806	6729.565430	2881.367676	31.640636
321.965088	1100.802979	6731.823242	2886.142822	31.705441
322.336884	1102.459106	6746.857422	2887.691162	31.628386
322.708618	1100.265381	6786.432617	2895.133057	31.565512
323.080414	1101.254761	6844.159668	2916.533447	31.609068
323.452118	1102.179565	6947.871582	2948.602051	31.586039
323.823761	1099.899658	7085.007324	2991.510742	31.605299
324.195343	1102.846313	7229.239258	3035.429932	31.545212
324.566925	1101.061035	7372.160645	3077.671875	31.519365
324.938507	1099.189941	7509.081055	3121.827881	31.554951
325.310059	1099.964355	7620.814453	3158.284180	31.565207
325.681519	1099.663208	7736.399902	3192.481934	31.533854
326.052948	1098.802856	7852.091797	3222.077148	31.440598
326.424408	1094.458130	7916.723145	3245.090088	31.523722
326.795776	1097.275757	7936.703613	3253.026611	31.519464
327.167084	1095.705688	7906.787109	3239.691650	31.477905
327.538391	1093.490356	7825.529785	3214.226318	31.502131
327.909668	1095.296997	7721.903320	3178.178711	31.432104
328.280884	1095.813232	7621.073730	3144.927246	31.402792
328.652100	1096.802734	7529.922363	3116.730225	31.398880
329.023254	1097.856445	7453.332520	3095.050049	31.424768
329.394348	1098.200562	7390.443359	3075.219727	31.419945
329.765442	1097.834839	7310.196777	3053.840820	31.485706
330.136475	1098.351074	7226.937988	3027.299805	31.474607
330.507538	1099.878174	7159.510742	3006.178711	31.459011
330.878479	1097.619873	7106.687500	2989.122803	31.477480
331.249420	1098.673706	7078.705078	2980.605713	31.470270
331.620331	1097.168091	7080.082520	2981.616455	31.497164
331.991211	1096.092896	7099.223633	2991.768066	31.578108
332.362030	1094.716309	7135.120605	3008.695313	31.686274
332.732819	1093.877441	7177.190430	3025.536133	31.753399
333.103577	1092.888184	7218.851074	3036.935303	31.734556
333.474304	1093.103271	7245.328125	3049.302246	31.796612
333.845001	1093.103271	7266.728516	3060.637451	31.869999
334.215668	1095.318481	7282.107422	3068.036133	31.885969
334.586273	1096.221802	7310.819824	3080.338379	31.926708
334.956818	1097.490845	7336.048340	3092.361572	31.976473
335.327362	1096.437012	7358.523926	3104.470459	32.066521
335.697876	1099.534058	7373.127930	3110.750732	32.058445
336.068329	1099.964355	7380.677734	3114.880615	32.081009
336.438751	1099.964233	7374.892578	3113.375000	32.086594
336.809174	1103.233521	7369.923828	3115.525635	32.110924
337.179504	1103.018433	7381.000000	3120.235840	32.131626
337.549896	1103.469971	7413.283203	3132.000977	32.148827
337.920135	1105.814331	7465.849609	3149.702148	32.136425
338.290375	1104.115234	7520.394043	3171.124268	32.215076
338.660614	1103.835815	7566.679688	3184.029053	32.186966
339.030792	1104.975708	7605.523438	3201.041992	32.244457
339.400940	1107.556641	7646.431152	3211.128906	32.170250
339.771027	1106.309204	7679.596680	3220.678711	32.166092
340.141083	1106.825317	7714.590820	3237.497803	32.244976
340.511139	1107.965210	7751.798828	3254.704102	32.311749
340.881134	1105.642456	7796.600098	3275.696045	32.432632
341.251068	1105.599243	7825.829590	3288.859131	32.487869
341.621002	1104.373291	7840.841797	3295.806152	32.530884
341.990875	1101.233154	7849.101563	3297.892822	32.553387
342.360718	1099.964233	7858.995117	3302.366455	32.584587
342.730560	1100.136230	7879.062012	3312.818848	32.640610
343.100311	1097.834961	7921.325195	3328.906982	32.696934
343.470032	1097.383301	7984.279297	3357.663330	32.820011
343.839752	1097.125122	8068.074707	3393.840088	32.946941
344.209442	1098.028564	8161.526855	3424.596191	32.937897
344.579041	1096.523071	8264.938477	3461.095459	32.985981
344.948639	1095.813232	8365.853516	3490.583496	32.940262
345.318176	1098.845825	8455.262695	3526.738281	33.003738
345.687714	1098.286621	8552.909180	3560.570313	33.030293
346.057190	1098.200562	8625.068359	3592.961670	33.144745
346.426636	1100.136230	8678.581055	3614.620117	33.179417
346.796051	1099.297363	8703.013672	3628.643555	33.264606
347.165405	1099.985596	8698.797852	3627.804688	33.265976
347.534729	1099.598633	8657.610352	3615.996826	33.294445
347.904083	1099.770752	8593.752930	3595.327148	33.300804
348.273315	1099.211426	8511.786133	3569.130615	33.320663
348.642517	1099.491089	8436.227539	3542.310059	33.295715
349.011719	1099.749146	8361.422852	3520.866455	33.341034
349.380890	1096.781006	8308.834961	3506.025879	33.405807
349.749969	1097.942505	8260.614258	3497.293701	33.497990
350.119049	1101.147217	8238.375977	3493.916992	33.525196
350.488098	1102.308716	8235.384766	3499.100586	33.601101
350.857117	1103.534668	8238.632813	3504.950684	33.656384
351.226074	1102.179565	8268.012695	3519.984375	33.740734
351.595001	1102.910889	8313.008789	3537.750000	33.769848
351.963867	1102.910889	8365.336914	3560.376465	33.838081
352.332764	1099.813721	8432.206055	3589.283447	33.951672
352.701538	1099.146973	8501.246094	3619.007568	34.042515
353.070343	1100.738525	8591.322266	3659.163086	34.155209
353.439056	1100.867676	8685.075195	3698.028076	34.244320
353.807770	1101.233276	8792.744141	3739.925537	34.306557
354.176453	1100.243896	8898.822266	3778.167236	34.338612
354.545105	1096.781128	9022.581055	3824.021973	34.409660
354.913666	1096.931641	9173.868164	3880.566650	34.463997
355.282227	1098.652344	9334.511719	3941.047607	34.512432
355.650757	1095.770264	9501.285156	4004.904785	34.609833
356.019226	1095.899292	9686.339844	4070.332031	34.624912
356.387695	1097.275757	9897.461914	4146.707031	34.651894
356.756104	1097.727417	10147.257813	4242.718750	34.753086
357.124451	1096.458496	10424.130859	4346.947266	34.847805
357.492828	1095.856201	10681.905273	4447.389648	34.962616
357.861084	1096.716553	10896.963867	4527.270996	35.004776
358.229401	1096.436890	11065.134766	4591.300293	35.058372
358.597595	1100.028687	11179.878906	4640.574707	35.124985
358.965759	1098.308105	11285.785156	4683.010254	35.187340
359.333923	1097.576904	11397.927734	4731.940918	35.283886
359.702057	1099.770630	11556.829102	4792.012695	35.308613
360.070129	1098.329590	11736.874023	4866.388184	35.418930
360.438141	1100.695435	11947.889648	4950.742676	35.493484
360.806122	1102.717163	12195.875977	5046.969238	35.555714
361.174133	1104.502441	12475.975586	5155.391602	35.623260
361.542053	1106.201660	12787.734375	5269.297852	35.638268
361.909912	1104.782104	13059.295898	5380.150391	35.763630
362.277771	1104.072266	13289.452148	5468.784668	35.819256
362.645599	1102.523560	13435.535156	5522.941895	35.842167
363.013367	1101.684937	13487.328125	5551.655273	35.928455
363.381134	1101.878540	13454.527344	5546.235352	35.978981
363.748810	1100.824707	13341.522461	5513.650879	36.050449
364.116455	1101.792480	13151.778320	5454.826660	36.124805
364.484100	1100.136353	12877.100586	5365.848145	36.220810
364.851715	1097.426270	12500.042969	5229.185547	36.235184
365.219238	1095.641113	12017.209961	5053.615723	36.239983
365.586761	1094.071167	11496.714844	4868.603516	36.284355
365.954224	1092.587036	11045.755859	4705.292969	36.297043
366.321686	1092.113770	10687.518555	4580.524414	36.355015
366.689117	1093.275269	10452.758789	4501.181641	36.411266
367.056458	1096.824097	10290.286133	4441.883789	36.385201
367.423737	1097.533936	10172.636719	4399.814453	36.388355
367.791077	1098.630859	10063.891602	4362.755859	36.408588
368.158295	1099.362061	9978.162109	4330.665527	36.393471
368.525543	1099.899658	9899.936523	4302.103027	36.388523
368.892700	1102.222534	9826.788086	4283.175781	36.459732
369.259827	1103.233521	9775.147461	4268.615234	36.501537
369.626953	1104.567017	9742.949219	4259.517090	36.522469
369.994019	1105.083130	9712.256836	4247.235840	36.506210
370.361053	1105.814453	9696.125977	4244.031250	36.532047
370.728027	1104.201294	9690.146484	4245.386230	36.585197
371.094971	1102.545166	9704.665039	4252.742188	36.621170
371.461914	1099.792114	9732.152344	4260.893555	36.619202
371.828796	1099.964355	9764.951172	4276.874023	36.663757
372.195618	1099.383545	9808.225586	4293.973145	36.682140
372.562408	1099.598633	9839.046875	4305.070801	36.678200
372.929199	1098.867310	9875.116211	4322.556641	36.731972
373.295898	1096.544434	9908.454102	4336.558594	36.768578
373.662598	1097.576782	9953.125977	4352.130371	36.751575
374.029236	1098.093018	9996.227539	4368.777832	36.756969
374.395844	1098.802856	10033.027344	4386.607910	36.800117
374.762421	1100.566528	10077.097656	4403.577637	36.796074
375.128967	1099.555542	10134.545898	4433.947266	36.905315
375.495483	1103.448608	10215.415039	4469.457520	36.940529
375.861908	1101.125854	10344.572266	4517.829102	36.963520
376.228333	1100.609497	10513.862305	4584.589844	37.011440
376.594727	1098.265137	10751.439453	4678.966797	37.093517
376.961090	1097.770386	11016.181641	4780.893555	37.134205
377.327393	1101.211792	11269.352539	4885.766602	37.219730
377.693665	1099.620117	11461.527344	4969.433105	37.346531
378.059906	1100.243896	11601.781250	5031.462402	37.434696
378.426086	1101.190186	11685.490234	5070.155762	37.498611
378.792267	1100.781494	11717.967773	5092.889648	37.600433
379.158386	1100.200806	11706.439453	5093.083008	37.646545
379.524445	1098.006958	11674.457031	5086.479980	37.710888
379.890503	1099.964233	11605.610352	5072.757324	37.815788
380.256531	1100.996582	11494.047852	5041.829102	37.917957
380.622467	1102.953857	11331.468750	4991.650879	38.018200
380.988403	1103.255005	11130.669922	4926.889648	38.131809
381.354279	1101.104126	10936.257813	4864.817871	38.267975
381.720154	1099.426636	10784.260742	4815.349121	38.368465
382.085968	1100.738525	10692.442383	4786.894043	38.430664
382.451752	1099.491089	10663.148438	4781.087402	38.495693
382.817474	1100.028809	10677.924805	4796.400879	38.592735
383.183197	1101.512939	10747.503906	4829.200195	38.644936
383.548859	1101.211792	10817.749023	4870.302734	38.790474
383.914490	1099.491211	10895.329102	4908.823242	38.887249
384.280060	1099.276123	10966.520508	4947.645020	39.001457
384.645599	1098.802856	11036.163086	4982.552734	39.082310
385.011108	1096.781128	11120.754883	5023.805176	39.176319
385.376617	1095.426147	11219.089844	5066.240723	39.223095
385.742035	1095.684082	11332.500977	5119.816895	39.310394
386.107452	1093.361328	11437.826172	5175.222168	39.459373
386.472778	1093.210815	11530.417969	5233.229004	39.665958
386.838135	1090.823364	11626.559570	5284.117188	39.800674
387.203430	1090.328735	11692.825195	5322.444336	39.916222
387.568634	1089.446777	11741.561523	5361.094727	40.101406
387.933838	1091.296509	11771.308594	5391.335449	40.262493
388.299042	1091.855713	11806.624023	5417.725586	40.372967
388.664124	1089.403809	11833.939453	5446.610840	40.552773
389.029236	1092.931152	11843.661133	5471.387695	40.727062
389.394318	1094.114136	11856.931641	5492.272461	40.864376
389.759308	1094.157104	11859.254883	5511.737305	41.036137
390.124298	1094.415161	11897.474609	5549.999512	41.243729
390.489227	1096.178833	11985.441406	5599.919922	41.359470
390.854126	1096.350830	12100.639648	5670.724121	41.569000
391.218964	1097.748901	12246.528320	5759.466797	41.813705
391.583771	1097.641479	12404.568359	5843.820801	41.975857
391.948578	1094.372192	12542.930664	5921.680176	42.165203
392.313354	1092.436401	12655.502930	5991.925293	42.371880
392.678040	1094.522705	12759.365234	6052.943359	42.507397
393.042694	1091.554565	12871.121094	6117.962402	42.670567
393.407349	1093.705322	12997.244141	6200.295410	42.899761
393.771942	1094.630371	13137.218750	6286.500000	43.112576
394.136505	1093.985107	13233.640625	6353.733887	43.327003
394.501007	1091.145996	13250.416016	6384.145508	43.530571
394.865479	1092.113770	13191.269531	6380.252930	43.706676
395.229919	1090.715820	13059.208984	6345.086426	43.901688
395.594360	1094.264771	12900.953125	6293.704590	44.038090
395.958710	1098.007080	12755.558594	6247.182617	44.170303
396.323029	1098.953491	12622.725586	6208.231445	44.336849
396.687286	1099.254517	12495.181641	6174.376953	44.534531
397.051544	1100.932129	12373.447266	6137.426758	44.679420
397.415771	1098.888794	12218.524414	6083.851074	44.830269
397.779938	1099.426636	12045.384766	6022.574707	44.976856
398.144043	1100.803101	11876.718750	5960.695801	45.099579
398.508148	1099.383545	11731.345703	5915.291992	45.296516
398.872192	1099.039429	11617.761719	5879.180176	45.444118
399.236237	1099.297485	11542.204102	5860.488770	45.592590
399.600189	1097.060669	11490.456055	5855.456543	45.782883
399.964111	1095.920776	11451.311523	5856.230957	45.969391
400.328003	1094.866943	11420.555664	5858.962891	46.138287
400.691925	1093.081787	11410.338867	5864.253418	46.244579
401.055695	1093.554932	11395.217773	5878.792969	46.451122
401.419495	1093.404297	11390.186523	5891.870117	46.601604
401.783234	1092.522583	11416.532227	5920.109863	46.760780
402.146942	1093.490356	11432.211914	5942.693359	46.903313
402.510620	1096.071167	11475.981445	5977.471680	47.027386
402.874237	1096.910034	11545.322266	6026.359375	47.178932
403.237823	1097.942505	11646.604492	6083.398438	47.261501
403.601379	1097.899536	11783.717773	6167.387695	47.441273
403.964874	1097.598389	11953.416016	6268.390137	47.631531
404.328369	1098.845825	12137.160156	6372.574707	47.776577
404.691772	1101.899902	12298.964844	6479.921875	48.030643
405.055176	1100.394409	12461.372070	6569.136230	48.136189
405.418549	1100.760010	12608.122070	6658.847168	48.300270
405.781860	1100.953613	12710.436523	6725.348633	48.446560
406.145142	1100.372925	12804.383789	6785.141113	48.571110
406.508362	1096.910034	12858.259766	6830.652832	48.750721
406.871552	1096.071289	12872.971680	6855.902832	48.907875
407.234741	1095.533569	12855.744141	6864.764160	49.057201
407.597870	1096.286377	12795.436523	6850.525391	49.185104
407.960938	1099.082397	12714.909180	6824.437012	49.289253
408.323975	1098.759766	12628.490234	6791.916016	49.378052
408.686981	1099.318970	12567.297852	6767.806152	49.428829
409.049957	1099.405029	12529.293945	6761.224609	49.535210
409.412903	1100.050293	12531.552734	6776.387207	49.655216
409.775787	1099.942749	12562.309570	6812.177734	49.834686
410.138611	1100.652466	12608.766602	6858.355957	50.031685
410.501434	1103.900269	12662.795898	6901.909180	50.160580
410.864227	1104.609985	12703.165039	6940.171875	50.312840
411.226929	1104.502441	12739.277344	6977.531250	50.478230
411.589630	1104.696045	12787.863281	7006.738770	50.517490
411.952271	1103.835815	12802.446289	7030.139160	50.658180
412.314911	1103.083008	12808.704102	7052.916992	50.828861
412.677490	1101.577393	12819.889648	7066.272949	50.900635
413.040009	1104.545532	12832.342773	7081.693848	50.965656
413.402496	1102.523682	12817.157227	7078.770020	51.015221
413.764984	1102.652832	12790.637695	7066.229980	51.023144
414.127380	1100.953613	12777.344727	7055.110840	50.993130
414.489777	1100.329956	12783.412109	7060.423340	51.014736
414.852112	1101.104248	12831.394531	7084.533203	51.008362
415.214386	1100.932129	12908.696289	7125.312500	51.020504
415.576660	1100.222290	13008.063477	7187.664551	51.121296
415.938904	1098.695190	13161.844727	7259.479492	51.071110
416.301086	1101.211792	13343.672852	7353.728516	51.072384
416.663208	1101.512817	13534.774414	7459.312012	51.135410
417.025299	1097.964111	13747.102539	7571.927734	51.181065
417.387390	1097.641479	13993.647461	7698.136230	51.182472
417.749420	1097.383301	14281.855469	7845.273438	51.180584
418.111389	1097.576904	14608.261719	8009.982422	51.162510
418.473328	1096.738037	14982.374023	8196.413086	51.129635
418.835266	1094.673340	15378.788086	8397.814453	51.127712
419.197144	1096.781128	15816.389648	8620.293945	51.112179
419.558960	1096.092896	16293.288086	8867.788086	51.139011
419.920746	1095.684204	16814.921875	9150.897461	51.244301
420.282471	1095.899292	17418.888672	9467.388672	51.286495
420.644226	1094.608887	18049.289063	9806.140625	51.381279
421.005920	1092.393433	18652.761719	10133.492188	51.485813
421.367523	1092.909668	19205.388672	10443.896484	51.627316
421.729126	1092.436401	19689.105469	10718.424805	51.761894
422.090668	1091.640503	20103.029297	10960.498047	51.910240
422.452179	1092.414917	20437.283203	11163.706055	52.061821
422.813660	1092.156860	20766.935547	11357.106445	52.173134
423.175110	1089.382324	21078.695313	11550.462891	52.333366
423.536469	1089.016724	21354.472656	11720.461914	52.460926
423.897858	1088.328369	21574.929688	11865.277344	52.604866
424.259155	1086.242065	21651.544922	11945.628906	52.804409
424.620453	1086.134644	21666.791016	11983.225586	52.948219
424.981689	1091.188965	21630.486328	11993.615234	53.080814
425.342865	1092.092285	21562.048828	11984.172852	53.210079
425.704041	1091.769653	21472.617188	11959.331055	53.322422
426.065186	1093.769775	21369.960938	11927.284180	53.429733
426.426239	1094.565674	21230.953125	11881.342773	53.568584
426.787262	1096.522949	20996.988281	11781.975586	53.694489
427.148254	1096.888672	20678.130859	11633.957031	53.812054
427.509216	1098.028442	20293.246094	11449.913086	53.929501
427.870178	1098.222046	19842.652344	11216.808594	53.981834
428.231049	1097.942383	19410.876953	10978.284180	53.952808
428.591858	1100.179321	18984.113281	10752.105469	53.969814
428.952698	1098.910278	18575.439453	10540.079102	54.021992
429.313446	1099.189941	18204.597656	10335.323242	53.995396
429.674164	1101.985962	17855.242188	10152.504883	54.022446
430.034851	1101.147217	17533.355469	9988.764648	54.086563
430.395477	1100.244019	17253.707031	9830.830078	54.047768
430.756104	1099.297607	17029.400391	9710.191406	54.054226
431.116699	1097.297241	16851.013672	9613.491211	54.058319
431.477203	1095.727295	16712.544922	9538.019531	54.058979
431.837646	1097.318848	16644.773438	9505.391602	54.080055
432.198090	1098.243652	16616.832031	9503.047852	54.159595
432.558502	1095.619629	16627.585938	9515.974609	54.213066
432.918884	1095.641113	16653.998047	9538.837891	54.267921
433.279205	1094.049561	16710.177734	9590.069336	54.405418
433.639465	1093.533325	16786.314453	9644.980469	54.492874
433.999756	1095.060425	16865.056641	9699.846680	54.564289
434.359924	1097.211182	16953.216797	9761.294922	54.642284
434.720093	1097.899536	17034.044922	9826.616211	54.773075
435.080200	1099.641602	17095.513672	9882.471680	54.906853
435.440277	1101.211670	17160.146484	9938.908203	55.032894
435.800354	1099.275879	17185.830078	9988.420898	55.258224
436.160370	1097.340210	17192.820313	10023.521484	55.457691
436.520325	1099.189819	17192.820313	10057.074219	55.661057
436.880249	1098.265137	17205.078125	10078.733398	55.755718
437.240112	1098.050171	17215.617188	10107.553711	55.898659
437.599976	1098.265137	17262.482422	10158.183594	56.049225
437.959808	1097.662964	17333.457031	10222.428711	56.201538
438.319519	1096.350952	17413.857422	10301.513672	56.412804
438.679260	1091.145996	17536.646484	10402.494141	56.619427
439.038940	1092.586914	17707.978516	10527.240234	56.782616
439.398590	1092.414795	17931.275391	10686.420898	56.975384
439.758179	1092.866577	18226.859375	10872.938477	57.079937
440.117767	1095.124878	18574.494141	11097.374023	57.223171
440.477295	1095.490601	18934.453125	11328.714844	57.364460
440.836792	1095.920776	19279.357422	11568.636719	57.594807
441.196198	1098.867310	19575.050781	11769.285156	57.752285
441.555603	1098.544800	19804.392578	11933.886719	57.924892
441.914978	1098.265137	19959.164063	12062.675781	58.133022
442.274323	1098.738403	20082.167969	12156.903320	58.251671
442.633575	1103.728149	20140.388672	12218.159180	58.384354
442.992859	1103.685181	20138.429688	12240.441406	58.507515
443.352051	1103.384033	20087.412109	12227.902344	58.599361
443.711182	1105.491943	19969.117188	12177.487305	58.694950
444.070313	1103.921753	19825.337891	12114.812500	58.814411
444.429382	1103.771240	19678.630859	12047.191406	58.915222
444.788452	1103.448608	19573.458984	12000.712891	58.999779
445.147430	1101.641968	19542.746094	11992.840820	59.059368
445.506409	1097.963989	19594.320313	12038.502930	59.149700
445.865295	1094.264771	19736.939453	12131.503906	59.204163
446.224182	1092.888184	19956.279297	12273.758789	59.272861
446.583038	1093.899048	20226.097656	12442.961914	59.319172
446.941833	1092.630005	20505.294922	12626.490234	59.414104
447.300598	1093.597778	20762.875000	12798.683594	59.509487
447.659302	1091.877197	20991.054688	12948.703125	59.584503
448.018005	1093.791504	21158.558594	13060.565430	59.640728
448.376648	1093.597900	21260.806641	13135.542969	59.710522
448.735229	1096.652100	21288.230469	13167.546875	59.781830
449.093781	1098.157715	21246.203125	13163.975586	59.885803
449.452301	1100.308350	21122.595703	13104.913086	59.956211
449.810791	1103.577759	20923.970703	12989.824219	59.969780
450.169220	1103.900269	20623.998047	12824.834961	60.045471
450.527618	1102.373169	20295.289063	12640.749023	60.117889
450.885956	1103.706665	20003.423828	12466.877930	60.123497
451.244263	1103.771118	19716.507813	12306.707031	60.189621
451.602539	1104.781982	19494.673828	12180.865234	60.229187
451.960785	1104.480835	19310.414063	12080.528320	60.288300
452.318970	1108.094238	19172.310547	12006.647461	60.332275
452.677124	1104.609863	19023.412109	11925.519531	60.388577
453.035248	1104.222778	18869.242188	11838.133789	60.421612
453.393311	1105.599243	18696.167969	11739.927734	60.454716
453.751312	1104.695923	18529.070313	11655.358398	60.551167
454.109314	1107.212402	18388.814453	11581.392578	60.608849
454.467285	1109.169800	18245.613281	11497.854492	60.623341
454.825195	1108.739502	18072.367188	11405.025391	60.696255
455.183044	1109.943848	17904.023438	11304.152344	60.701206
455.540894	1106.545654	17691.955078	11190.913086	60.802639
455.898651	1106.674683	17504.232422	11080.770508	60.826714
456.256378	1101.856934	17306.982422	10969.552734	60.892437
456.614105	1103.061401	17179.052734	10892.274414	60.893372
456.971771	1104.050781	17093.775391	10847.410156	60.935131
457.329407	1101.749512	17093.128906	10851.667969	60.969837
457.686981	1101.684814	17167.417969	10897.243164	60.971748
458.044525	1099.598633	17346.685547	11000.501953	60.939560
458.402008	1099.189941	17633.281250	11177.513672	60.954811
458.759460	1098.458618	18066.625000	11443.761719	60.968891
459.116913	1096.329468	18630.761719	11791.417969	60.994785
459.474274	1098.286621	19308.283203	12193.984375	60.931904
459.831635	1098.630859	19928.597656	12569.365234	60.917442
460.188904	1098.738403	20480.904297	12901.599609	60.895470
460.546173	1098.587769	20918.871094	13180.772461	60.958687
460.903381	1097.684448	21253.000000	13388.625977	60.981140
461.260559	1098.093262	21482.876953	13531.353516	60.992847
461.617706	1101.082764	21610.376953	13618.871094	61.034706
461.974762	1100.803101	21586.716797	13608.655273	61.055866
462.331848	1099.017822	21431.537109	13522.147461	61.099804
462.688843	1099.856812	21097.753906	13327.930664	61.146801
463.045837	1099.856812	20608.511719	13034.842773	61.177906
463.402740	1100.028931	20001.488281	12678.883789	61.259052
463.759613	1098.759888	19425.611328	12336.711914	61.319599
464.116486	1099.017944	18915.269531	12036.502930	61.390495
464.473267	1100.222290	18506.187500	11789.784180	61.413208
464.830048	1099.899658	18187.908203	11596.425781	61.426273
465.186737	1101.491333	17932.179688	11440.750977	61.431000
465.543457	1098.910522	17749.082031	11325.748047	61.421814
465.900085	1096.135864	17683.847656	11299.185547	61.509693
466.256683	1093.877563	17708.130859	11309.594727	61.487663
466.613251	1093.081665	17779.880859	11353.600586	61.488838
466.969757	1092.156738	17868.923828	11416.166992	61.537537
467.326233	1092.974121	17954.439453	11470.131836	61.543633
467.682678	1093.468750	18007.349609	11511.233398	61.592987
468.039093	1094.329102	18032.878906	11529.149414	61.603973
468.395416	1091.554688	18023.759766	11518.868164	61.582726
468.751740	1089.511353	18002.896484	11514.869141	61.639687
469.108032	1089.511353	17967.236328	11501.125000	61.688488
469.464233	1089.877075	17925.876953	11479.165039	61.708767
469.820435	1095.770264	17833.671875	11430.277344	61.743141
470.176575	1097.533936	17685.136719	11349.836914	61.807014
470.532715	1099.340576	17518.494141	11251.996094	61.834217
470.888763	1103.470093	17376.755859	11168.501953	61.850029
471.244751	1103.190430	17260.076172	11105.375977	61.906643
471.600769	1103.534668	17199.617188	11070.683594	61.922825
471.956696	1104.029297	17199.033203	11071.392578	61.928307
472.312592	1104.717651	17266.589844	11131.271484	62.038319
472.668457	1105.964966	17356.882813	11204.871094	62.143604
473.024292	1107.126465	17486.939453	11292.128906	62.180210
473.380035	1106.954468	17572.779297	11365.019531	62.299129
473.735779	1106.007935	17660.789063	11423.694336	62.324512
474.091492	1104.953979	17747.638672	11491.336914	62.408092
474.447113	1102.179565	17866.193359	11590.876953	62.566742
474.802765	1098.394165	17964.505859	11670.155273	62.680489
475.158295	1098.587769	18087.423828	11764.467773	62.781700
475.513824	1099.491089	18213.548828	11863.018555	62.892899
475.869324	1098.114624	18362.341797	11970.793945	62.978088
476.224762	1098.781372	18489.732422	12070.118164	63.086468
476.580170	1100.007202	18638.607422	12169.122070	63.112881
476.935516	1099.082397	18791.574219	12289.115234	63.247353
477.290863	1099.469604	19031.796875	12452.337891	63.309505
477.646118	1096.867065	19283.615234	12634.918945	63.442081
478.001373	1097.533936	19573.435547	12847.505859	63.596199
478.356537	1098.609253	19855.857422	13043.271484	63.680248
478.711700	1100.501953	20156.970703	13254.006836	63.776268
479.066833	1099.254395	20462.707031	13464.184570	63.857048
479.421875	1097.555298	20789.414063	13703.224609	64.014618
479.776917	1098.544678	21111.562500	13948.264648	64.206810
480.131897	1098.222046	21482.617188	14210.728516	64.326202
480.486847	1097.146606	21913.056641	14513.691406	64.453316
480.841766	1098.781372	22435.853516	14884.488281	64.609177
481.196594	1098.953491	23050.208984	15313.100586	64.753235
481.551453	1098.093262	23857.900391	15870.072266	64.903793
481.906219	1095.211060	24897.945313	16580.527344	65.056877
482.260986	1094.479736	26347.199219	17573.767578	65.257477
482.615662	1092.135254	28416.939453	19018.937500	65.606331
482.970306	1093.640991	31148.205078	21027.917969	66.326958
483.324951	1093.619385	34243.640625	23457.228516	67.461830
483.679504	1092.673096	37399.925781	26016.923828	68.648125
484.034027	1092.113892	40339.859375	28363.085938	69.484177
484.388519	1091.597656	42912.027344	30341.908203	69.942635
484.742981	1089.898560	45000.953125	31899.244141	70.163071
485.097351	1088.586426	46633.558594	33119.847656	70.328865
485.451721	1092.759033	47805.765625	34021.335938	70.491241
485.806030	1096.501465	48616.898438	34674.253906	70.659660
486.160309	1096.114258	49095.046875	35115.488281	70.875275
486.514557	1098.135986	49099.496094	35245.121094	71.137535
486.868744	1098.265137	48648.539063	34976.464844	71.247116
487.222931	1097.856567	47882.898438	34328.597656	71.028557
487.577026	1099.168579	46976.785156	33511.250000	70.649010
487.931122	1100.071777	46097.984375	32786.339844	70.417191
488.285126	1101.964478	45262.703125	32195.279297	70.409409
488.639099	1103.642090	44510.371094	31745.201172	70.591721
488.993042	1103.706543	43848.421875	31382.492188	70.836327
489.346954	1101.727905	43273.769531	31090.087891	71.109573
489.700836	1102.609741	42718.285156	30826.142578	71.423889
490.054626	1103.233521	42111.195313	30505.929688	71.699966
490.408417	1100.889160	41562.910156	30214.904297	71.953934
490.762146	1102.093628	41075.882813	29975.712891	72.231377
491.115814	1103.491577	40714.914063	29842.429688	72.552147
491.469513	1103.599121	40368.914063	29727.876953	72.899651
491.823090	1102.007324	39915.222656	29525.744141	73.232109
492.176666	1101.813965	39426.257813	29292.187500	73.557159
492.530182	1100.609375	38929.359375	29046.263672	73.874115
492.883698	1099.813721	38390.558594	28767.974609	74.195778
493.237091	1099.017944	37800.746094	28444.298828	74.506798
493.590515	1099.232910	37121.738281	28028.357422	74.756393
493.943878	1098.243652	36263.609375	27499.363281	75.077049
494.297150	1101.233276	35105.378906	26743.593750	75.409515
494.650452	1100.630981	33647.519531	25747.125000	75.726112
495.003662	1100.093262	31910.638672	24531.748047	76.050766
495.356873	1099.792114	30217.744141	23328.568359	76.340454
495.710022	1100.028687	28792.429688	22332.123047	76.671196
496.063110	1098.329590	27677.992188	21593.150391	77.107155
496.416168	1098.867188	26896.216797	21090.097656	77.493347
496.769165	1100.544922	26366.167969	20776.335938	77.875740
497.122162	1100.286865	26053.806641	20613.435547	78.197983
497.475098	1100.566528	25846.599609	20543.943359	78.571693
497.828003	1100.803223	25765.664063	20564.140625	78.911201
498.180847	1099.190063	25726.951172	20599.003906	79.178185
498.533661	1096.479980	25654.445313	20627.308594	79.529503
498.886444	1097.598267	25577.039063	20640.019531	79.831978
499.239136	1096.221802	25444.720703	20606.533203	80.129417
499.591827	1097.727417	25234.654297	20499.185547	80.380814
499.944427	1098.222168	24928.873047	20309.546875	80.616028
500.297089	1096.243286	24563.923828	20081.994141	80.901695
500.649628	1095.899292	24183.425781	19837.814453	81.177666
501.002136	1097.017700	23780.343750	19579.804688	81.481819
501.354584	1097.232788	23425.330078	19358.226563	81.784821
501.707001	1100.394409	23066.189453	19117.466797	82.023308
502.059387	1102.523804	22777.572266	18923.140625	82.217194
502.411682	1104.524048	22528.509766	18764.949219	82.432961
502.764038	1104.265747	22331.023438	18638.332031	82.603600
503.116302	1104.480957	22180.294922	18557.697266	82.811592
503.468475	1104.803589	22081.445313	18521.822266	83.030540
503.820709	1104.954102	22042.277344	18534.294922	83.245308
504.172852	1105.943481	22012.984375	18538.210938	83.379890
504.524902	1106.136963	22011.242188	18564.060547	83.510338
504.876953	1104.588379	22025.222656	18600.195313	83.628471
505.228912	1102.631226	22043.330078	18627.275391	83.687004
505.580872	1100.222290	22069.484375	18661.837891	83.749329
505.932770	1096.953125	22046.945313	18674.419922	83.902023
506.284698	1098.996460	22020.857422	18665.472656	83.962303
506.636505	1100.695557	22023.373047	18681.064453	84.025429
506.988342	1100.179443	22017.480469	18690.552734	84.094849
507.340088	1100.136353	22023.845703	18701.886719	84.123466
507.691772	1100.674072	22037.267578	18715.179688	84.132622
508.043396	1099.684692	22092.435547	18772.068359	84.183266
508.395050	1100.308472	22172.833984	18841.945313	84.193214
508.746582	1101.555786	22285.621094	18940.517578	84.209343
509.098114	1101.039551	22428.003906	19063.824219	84.225700
509.449646	1099.405151	22588.648438	19200.443359	84.233017
509.801086	1100.200806	22787.533203	19367.451172	84.230049
510.152557	1097.447754	22997.281250	19540.076172	84.213554
510.503906	1094.909790	23199.820313	19704.830078	84.189079
510.855194	1096.114136	23391.392578	19865.341797	84.184769
511.206482	1096.028076	23587.716797	20021.125000	84.142624
511.557709	1094.587158	23787.632813	20182.996094	84.115677
511.908844	1096.458496	23983.898438	20320.259766	83.992798
512.260010	1095.275513	24123.050781	20427.089844	83.949989
512.611206	1094.415161	24226.591797	20494.990234	83.868347
512.962219	1096.178711	24295.806641	20532.435547	83.778313
513.313232	1099.512573	24345.337891	20554.117188	83.690750
513.664246	1099.899780	24347.125000	20531.466797	83.586609
514.015137	1101.663330	24320.863281	20481.720703	83.465652
514.366028	1103.362549	24279.220703	20431.048828	83.395775
514.716919	1103.319458	24214.181641	20347.960938	83.270981
515.067688	1103.706665	24113.310547	20243.132813	83.180161
515.418396	1106.158569	24022.310547	20141.097656	83.063416
515.769104	1105.857422	23951.248047	20060.636719	82.969818
516.119812	1105.857544	23936.923828	20019.253906	82.840614
516.470459	1104.136719	24019.449219	20048.503906	82.671211
516.821106	1103.943237	24165.898438	20134.990234	82.521393
517.171631	1102.631348	24438.595703	20334.734375	82.414009
517.522095	1104.072266	24824.949219	20617.671875	82.263397
517.872559	1101.104126	25355.875000	21028.820313	82.159988
518.222961	1099.491089	25922.587891	21454.250000	81.999275
518.573364	1099.878296	26497.068359	21875.162109	81.801506
518.923645	1097.447876	27009.025391	22248.519531	81.627884
519.273987	1095.813232	27444.949219	22554.708984	81.440605
519.624207	1095.017334	27744.255859	22754.710938	81.276970
519.974487	1094.845215	27967.314453	22890.921875	81.109322
520.324646	1097.146606	28054.812500	22925.744141	80.973618
520.674744	1099.426392	28052.123047	22873.974609	80.788017
521.024780	1100.351196	27905.179688	22701.476563	80.586693
521.374878	1100.415771	27644.673828	22443.445313	80.405449
521.724792	1102.588013	27274.068359	22079.230469	80.150764
522.074707	1100.544800	26863.738281	21696.945313	79.945061
522.424744	1100.136230	26471.169922	21335.396484	79.757332
522.774536	1100.265381	26182.986328	21057.685547	79.566406
523.124329	1099.082520	25963.087891	20822.021484	79.323257
523.474182	1100.846191	25892.238281	20716.845703	79.124237
523.823914	1101.426880	25940.138672	20693.769531	78.878258
524.173523	1102.029175	26151.929688	20811.523438	78.680931
524.523132	1100.588013	26546.710938	21070.310547	78.478447
524.872803	1100.007324	27100.238281	21447.195313	78.257721
525.222290	1098.544678	27838.675781	21965.326172	78.035446
525.571777	1098.695190	28641.482422	22547.009766	77.872711
525.921326	1100.544800	29516.044922	23165.667969	77.651718
526.270752	1100.996582	30439.126953	23832.955078	77.482643
526.620178	1103.706543	31463.101563	24563.798828	77.274574
526.969482	1103.663574	32721.966797	25486.580078	77.116463
527.318787	1102.416138	34311.453125	26652.894531	76.938332
527.668030	1102.416138	36333.511719	28211.949219	76.947746
528.017212	1100.588013	38582.175781	30042.562500	77.216515
528.366394	1098.243652	40807.421875	31892.167969	77.548630
528.715515	1099.964233	42803.152344	33509.121094	77.713860
529.064636	1102.201050	44375.453125	34730.042969	77.710457
529.413635	1101.125732	45543.597656	35579.996094	77.580902
529.762695	1100.652466	46308.406250	36088.941406	77.394440
530.111633	1098.028442	46743.621094	36336.910156	77.201065
530.460510	1096.415405	46786.746094	36300.023438	77.048271
530.809387	1096.996216	46388.996094	35914.148438	76.872635
531.158142	1095.017456	45484.238281	35146.613281	76.711411
531.506958	1094.006470	44063.546875	33913.839844	76.379295
531.855652	1096.759521	42402.140625	32392.031250	75.765602
532.204407	1096.049683	40807.140625	30884.943359	75.014046
532.552979	1095.081909	39555.570313	29691.548828	74.352844
532.901611	1093.963379	38680.625000	28848.306641	73.840942
533.250183	1090.522217	38107.992188	28288.042969	73.472130
533.598755	1091.511597	37671.503906	27876.013672	73.221725
533.947205	1093.834473	37317.117188	27531.755859	72.985992
534.295593	1093.770020	37026.246094	27233.029297	72.745499
534.643982	1093.146362	36790.921875	26990.185547	72.545242
534.992249	1098.329590	36565.519531	26762.757813	72.361038
535.340576	1099.211426	36345.882813	26546.064453	72.196472
535.688843	1096.867065	36093.421875	26298.269531	72.011093
536.037048	1098.351074	35689.480469	25930.310547	71.787071
536.385315	1097.727417	35053.160156	25381.294922	71.515999
536.733398	1093.404297	34230.691406	24706.542969	71.258514
537.081421	1097.963989	33336.515625	23979.357422	70.975250
537.429443	1098.781372	32512.695313	23314.585938	70.719635
537.777466	1099.964233	31796.349609	22722.664063	70.440536
538.125427	1099.491089	31195.392578	22225.611328	70.196007
538.473267	1100.652466	30718.154297	21812.056641	69.929611
538.821167	1096.157349	30342.189453	21473.951172	69.677124
539.169006	1093.490356	30042.281250	21194.798828	69.437469
539.516846	1095.404541	29785.906250	20945.886719	69.188339
539.864502	1094.393677	29725.533203	20830.644531	68.932816
540.212219	1093.597778	29960.894531	20912.611328	68.655594
540.559875	1096.415527	30618.244141	21283.367188	68.379745
540.907410	1095.189453	31609.419922	21891.119141	68.151581
541.254944	1091.812866	32749.218750	22598.755859	67.936531
541.602478	1088.629517	33840.988281	23291.123047	67.788994
541.949951	1091.081543	34812.960938	23890.550781	67.610313
542.297363	1090.995483	35665.558594	24415.648438	67.461884
542.644714	1090.952393	36393.113281	24851.789063	67.307030
542.992126	1094.909912	36898.488281	25129.242188	67.128296
543.339355	1094.909912	37133.890625	25226.673828	66.960175
543.686646	1095.641113	36962.300781	25035.361328	66.746445
544.033813	1096.028320	36350.503906	24563.023438	66.564583
544.380920	1098.544800	35273.101563	23783.763672	66.380432
544.728027	1098.157593	33893.148438	22793.943359	66.155785
545.075134	1099.577026	32485.080078	21775.212891	65.876389
545.422180	1102.609741	31191.500000	20836.279297	65.584572
545.769165	1100.136230	30101.513672	20051.990234	65.348114
546.116150	1101.512695	29163.873047	19362.312500	65.072220
546.463013	1103.620605	28333.876953	18735.632813	64.751549
546.809875	1101.147095	27652.351563	18227.613281	64.503540
547.156677	1100.222290	27041.158203	17761.683594	64.228447
547.503418	1099.340576	26523.564453	17386.066406	64.059868
547.850098	1099.555664	26053.443359	17031.185547	63.844284
548.196777	1099.060913	25603.150391	16694.542969	63.644405
548.543396	1099.684448	25154.019531	16365.899414	63.465542
548.890015	1099.921143	24654.173828	16014.240234	63.319012
549.236633	1099.577026	24106.105469	15623.375000	63.129025
549.583069	1099.383545	23500.394531	15188.074219	62.893097
549.929504	1100.953613	22837.970703	14728.188477	62.691372
550.275879	1100.846191	22184.296875	14284.178711	62.529289
550.622253	1102.136597	21534.345703	13833.884766	62.312145
550.968567	1102.953979	20971.779297	13444.224609	62.113739
551.314819	1105.255249	20489.205078	13107.472656	61.918331
551.661072	1104.029297	20128.861328	12850.022461	61.740326
552.007263	1102.029175	19904.488281	12661.741211	61.479790
552.353394	1103.190430	19757.716797	12524.413086	61.224937
552.699524	1104.480957	19663.253906	12421.540039	60.979561
553.045593	1102.373169	19617.462891	12350.735352	60.752403
553.391602	1104.631470	19596.880859	12306.449219	60.575741
553.737549	1101.168579	19576.876953	12259.087891	60.392372
554.083435	1101.770996	19533.453125	12200.113281	60.213398
554.429321	1103.706543	19478.607422	12128.427734	59.998806
554.775146	1101.942993	19381.414063	12032.522461	59.797024
555.120972	1101.018188	19274.023438	11924.790039	59.559612
555.466675	1102.115112	19112.755859	11793.805664	59.363190
555.812439	1104.222900	18910.880859	11641.829102	59.177902
556.158081	1103.556274	18680.765625	11477.874023	59.021416
556.503662	1102.824829	18449.339844	11307.808594	58.830162
556.849182	1104.739136	18225.054688	11145.767578	58.649784
557.194702	1103.061401	18018.554688	10992.093750	58.461384
557.540161	1104.588501	17818.185547	10852.097656	58.320831
557.885620	1104.330322	17654.017578	10727.974609	58.150009
558.231018	1102.050537	17501.242188	10614.369141	58.004803
558.576355	1100.265381	17381.789063	10515.260742	57.826256
558.921692	1102.115112	17289.044922	10430.238281	57.627502
559.266968	1101.985962	17192.560547	10350.464844	57.477615
559.612183	1100.007324	17111.517578	10278.003906	57.321239
559.957336	1100.157837	17059.187500	10223.847656	57.169453
560.302429	1099.211426	17023.355469	10181.347656	57.033749
560.647522	1098.673706	17005.095703	10149.365234	56.899605
560.992554	1097.211182	16996.341797	10119.532227	56.747261
561.337524	1097.168213	17005.804688	10098.692383	56.582626
561.682434	1095.275513	17022.130859	10071.571289	56.359497
562.027344	1095.662720	17028.236328	10048.083984	56.189423
562.372253	1099.039307	17038.152344	10034.253906	56.058418
562.717102	1099.189941	17022.064453	10008.551758	55.953220
563.061829	1097.813354	17045.335938	9980.095703	55.696941
563.406494	1096.974609	17039.208984	9955.684570	55.567554
563.751160	1093.253784	17025.033203	9917.616211	55.388428
564.095825	1093.963501	17028.648438	9890.322266	55.202587
564.440369	1093.060059	17044.304688	9873.244141	55.043880
564.784973	1095.146362	17087.515625	9874.211914	54.895340
565.129456	1094.329224	17191.763672	9895.418945	54.673866
565.473877	1093.705444	17318.017578	9953.618164	54.608868
565.818298	1091.167480	17494.449219	10037.113281	54.537537
566.162659	1090.801880	17690.904297	10127.189453	54.435738
566.507019	1087.661621	17885.035156	10215.543945	54.341133
566.851196	1090.844849	18033.029297	10289.725586	54.295723
567.195435	1090.930786	18181.650391	10347.174805	54.159477
567.539612	1094.350586	18281.232422	10387.416992	54.070690
567.883789	1093.038574	18350.337891	10412.042969	54.000362
568.227844	1094.350708	18373.931641	10405.762695	53.886795
568.571960	1094.243042	18368.382813	10378.360352	53.745754
568.915955	1094.888306	18297.125000	10324.805664	53.655331
569.259888	1096.587402	18214.556641	10259.657227	53.528957
569.603821	1099.405151	18094.542969	10173.862305	53.394428
569.947632	1099.426514	17961.880859	10090.540039	53.320309
570.291504	1100.544922	17867.480469	10023.435547	53.217182
570.635193	1097.146606	17825.111328	9992.141602	53.174400
570.979004	1099.275879	17849.824219	9992.549805	53.092430
571.322632	1100.695435	17954.826172	10032.920898	52.997250
571.666321	1101.190186	18077.617188	10091.163086	52.955620
572.009949	1102.072021	18221.482422	10164.420898	52.936104
572.353455	1102.566772	18347.908203	10233.051758	52.944649
572.696960	1101.254761	18457.728516	10288.736328	52.934029
573.040405	1099.146973	18533.201172	10315.191406	52.862316
573.383850	1098.587769	18599.574219	10334.312500	52.772594
573.727173	1099.297607	18644.417969	10336.829102	52.650143
574.070557	1099.577148	18657.710938	10335.367188	52.601208
574.413879	1100.953735	18657.667969	10317.988281	52.498627
574.757019	1099.813721	18610.478516	10293.684570	52.504410
575.100281	1097.447876	18509.691406	10235.570313	52.481014
575.443420	1097.125122	18375.201172	10152.591797	52.410156
575.786499	1094.458130	18211.888672	10050.363281	52.320385
576.129517	1091.361084	18045.138672	9946.415039	52.230564
576.472534	1090.909302	17876.083984	9843.304688	52.143608
576.815491	1091.296509	17689.091797	9732.603516	52.062981
577.158447	1090.221191	17486.445313	9626.483398	52.062363
577.501343	1090.049072	17278.958984	9509.910156	52.010056
577.844116	1089.167236	17046.132813	9374.279297	51.921600
578.187012	1089.769531	16777.798828	9229.035156	51.882015
578.529724	1090.479370	16485.935547	9061.940430	51.778011
578.872375	1090.285645	16187.790039	8896.048828	51.702343
579.215027	1092.199951	15902.677734	8738.351563	51.626637
579.557617	1093.834473	15631.097656	8588.827148	51.557106
579.900146	1097.426270	15371.777344	8441.905273	51.452278
580.242676	1098.200684	15135.146484	8312.211914	51.393028
580.585144	1098.372681	14925.915039	8199.467773	51.354717
580.927612	1099.964355	14731.781250	8081.775391	51.217026
581.269958	1099.598633	14558.878906	7984.473145	51.153362
581.612305	1099.770752	14418.152344	7904.484863	51.092648
581.954590	1099.125488	14297.750000	7830.261230	50.998764
582.296814	1099.512573	14190.812500	7772.361328	50.971626
582.639038	1100.200806	14103.037109	7715.429688	50.875278
582.981140	1099.340576	14021.628906	7664.046875	50.801422
583.323242	1099.512573	13931.920898	7618.901367	50.804092
583.665283	1098.265015	13851.415039	7581.068359	50.832954
584.007324	1100.028687	13781.985352	7543.601074	50.808975
584.349304	1102.007446	13709.204102	7507.402832	50.807453
584.691284	1102.308472	13636.271484	7477.184570	50.860817
585.033142	1102.351685	13574.391602	7444.901367	50.854149
585.374939	1104.566895	13519.954102	7419.543457	50.864117
585.716736	1107.836060	13466.011719	7400.594238	50.919800
586.058411	1106.567139	13411.962891	7367.148926	50.876724
586.400085	1110.137451	13364.902344	7349.232910	50.911591
586.741760	1109.212769	13321.413086	7327.144043	50.915733
587.083374	1109.234253	13313.434570	7322.520508	50.911049
587.424988	1108.954590	13301.734375	7312.583984	50.879536
587.766541	1107.018799	13296.334961	7311.186035	50.898399
588.107971	1106.717773	13323.178711	7319.875000	50.858898
588.449341	1105.964966	13351.696289	7329.639160	50.823215
588.790710	1102.932373	13396.068359	7352.976074	50.841740
589.132080	1100.415894	13431.727539	7373.150391	50.868347
589.473267	1097.619873	13485.625977	7395.992188	50.842503
589.814514	1098.308105	13539.355469	7423.351074	50.840118
590.155762	1094.866943	13599.190430	7443.998047	50.775486
590.496948	1095.662720	13625.881836	7464.473633	50.827614
590.838013	1093.791504	13636.012695	7464.624512	50.795097
591.179077	1093.425903	13644.377930	7473.893555	50.836525
591.520081	1093.124756	13635.905273	7468.624512	50.830040
591.861023	1092.909668	13604.050781	7455.073730	50.851990
592.201965	1094.049683	13567.380859	7439.480957	50.871986
592.542847	1094.350708	13520.362305	7417.930176	50.889858
592.883606	1094.350586	13474.616211	7388.593750	50.840939
593.224365	1093.812988	13432.461914	7364.590820	50.822243
593.565125	1095.038940	13414.565430	7355.234375	50.815228
593.905823	1093.662354	13405.166016	7356.696777	50.871399
594.246521	1093.640991	13429.277344	7364.203125	50.832901
594.587097	1095.813232	13479.755859	7393.217285	50.851368
594.927612	1095.060425	13530.147461	7409.843262	50.781975
595.268127	1098.501831	13617.537109	7452.537109	50.754990
595.608582	1096.738159	13737.702148	7515.103516	50.774334
595.948975	1097.361816	13919.186523	7601.587402	50.727772
596.289307	1097.921021	14138.355469	7707.729492	50.687027
596.629700	1097.920898	14373.543945	7834.626953	50.744934
596.969971	1098.695190	14583.634766	7940.295410	50.735119
597.310242	1095.791748	14748.256836	8024.047363	50.747288
597.650391	1097.017700	14833.452148	8067.171875	50.742092
597.990540	1098.157715	14878.662109	8090.379395	50.739956
598.330627	1096.910278	14868.209961	8078.055176	50.693436
598.670654	1098.071655	14827.321289	8051.234375	50.644882
599.010620	1096.802612	14715.005859	7995.162598	50.655434
599.350525	1097.211182	14560.815430	7907.624512	50.583878
599.690491	1095.447510	14334.487305	7795.890625	50.611248
600.030334	1095.963745	14053.934570	7656.195801	50.627003
600.370178	1098.437134	13753.231445	7495.746582	50.552460
600.710022	1097.920898	13462.032227	7347.491699	50.546059
601.049683	1100.523438	13202.603516	7217.948242	50.548542
601.389343	1100.222290	13015.827148	7120.021973	50.520306
601.728943	1098.458618	12878.240234	7047.002930	50.497921
602.068542	1099.340454	12808.490234	7008.116699	50.462898
602.408081	1099.555542	12813.306641	7014.740723	50.497787
602.747498	1096.587402	12897.833984	7055.433105	50.493359
603.087036	1097.426270	13028.324219	7126.323730	50.531799
603.426453	1096.200317	13228.691406	7222.379395	50.493992
603.765869	1096.049683	13460.613281	7336.350098	50.469231
604.105103	1095.404419	13732.733398	7476.840820	50.496719
604.444336	1095.038940	14025.156250	7622.987793	50.486385
604.783569	1092.694580	14310.224609	7759.327637	50.437809
605.122681	1093.339722	14537.800781	7872.632324	50.424427
605.461792	1093.898926	14714.596680	7962.535645	50.427937
605.800842	1091.619141	14821.641602	8022.779297	50.481785
606.139954	1091.188965	14841.731445	8037.985840	50.520164
606.478943	1092.458008	14791.166016	8012.713867	50.517582
606.817932	1092.909668	14669.818359	7954.684082	50.540035
607.156799	1096.307861	14492.224609	7867.899902	50.549671
607.495605	1098.050049	14283.812500	7756.853027	50.499943
607.834412	1097.770386	14040.190430	7626.148926	50.441715
608.173157	1099.641602	13796.268555	7498.843750	50.400806
608.511841	1100.394409	13598.674805	7403.218750	50.429531
608.850464	1098.394165	13492.187500	7345.835449	50.407825
609.189148	1099.856567	13428.931641	7316.712402	50.424351
609.527710	1100.674072	13402.199219	7300.581055	50.399498
609.866211	1099.684692	13397.660156	7299.527832	50.413528
610.204712	1098.544800	13401.832031	7300.732422	50.410816
610.543091	1097.619873	13421.490234	7297.098145	50.304642
610.881409	1095.705566	13409.467773	7287.741699	50.285496
611.219788	1093.963623	13372.667969	7274.256348	50.333431
611.558044	1093.812988	13309.347656	7243.585938	50.343868
611.896301	1091.705078	13199.097656	7187.729492	50.349606
612.234436	1092.737671	13027.894531	7103.783203	50.364193
612.572693	1094.694824	12793.499023	6993.253418	50.420181
612.910767	1094.221558	12539.918945	6861.667480	50.389641
613.248840	1094.178589	12277.156250	6731.458008	50.409466
613.586792	1096.888550	12025.425781	6600.259277	50.357800
613.924805	1098.695190	11788.512695	6481.340820	50.353016
614.262695	1099.727661	11571.411133	6375.542480	50.381725
614.600525	1101.254761	11383.238281	6289.402832	50.458630
614.938293	1102.953979	11231.972656	6213.543945	50.454937
615.276123	1103.040039	11102.236328	6148.460938	50.458263
615.613892	1100.824707	10995.621094	6100.347168	50.526783
615.951538	1099.362183	10904.834961	6044.985840	50.437382
616.289185	1099.835205	10831.686523	6003.345703	50.386204
616.626770	1097.641479	10767.162109	5973.836426	50.428509
616.964294	1097.727417	10728.683594	5950.715332	50.389469
617.301819	1096.781128	10697.540039	5930.691406	50.349251
617.639221	1097.619873	10677.108398	5915.635742	50.295124
617.976624	1097.211060	10657.708008	5906.021973	50.298756
618.313965	1096.243286	10649.468750	5893.569336	50.216820
618.651306	1096.028198	10634.735352	5884.943848	50.205082
618.988525	1094.178589	10620.928711	5879.287598	50.228134
619.325684	1097.297363	10602.753906	5868.383301	50.193127
619.662964	1099.921387	10589.075195	5863.199219	50.197075
620.000000	1099.813721	10570.235352	5855.951172	50.220970
620.337097	1098.974854	10547.738281	5839.239258	50.168095
620.674133	1097.942505	10512.743164	5818.914063	50.144150
621.011047	1097.017578	10483.148438	5803.815430	50.146305
621.347961	1096.092773	10448.735352	5788.136230	50.168102
621.684875	1094.737793	10412.816406	5769.661133	50.170467
622.021729	1095.813232	10378.791016	5752.906250	50.168091
622.358521	1095.684204	10344.764648	5731.978516	50.127087
622.695313	1097.103638	10306.308594	5712.793945	50.120399
623.031982	1096.824097	10284.176758	5699.222168	50.094933
623.368652	1095.296997	10261.485352	5687.070313	50.094688
623.705261	1095.963745	10251.548828	5674.832031	50.011749
624.041748	1097.469238	10251.785156	5668.853027	49.936920
624.378296	1099.340454	10255.355469	5676.445313	49.990147
624.714722	1099.426636	10275.638672	5686.252930	49.986053
625.051147	1101.190186	10313.256836	5708.104980	50.009571
625.387512	1100.501953	10365.477539	5739.679199	50.072201
625.723877	1098.609253	10452.929688	5778.694336	50.031265
626.060120	1099.770630	10549.522461	5827.560547	50.030838
626.396301	1098.716797	10676.248047	5887.783203	50.003139
626.732483	1099.362183	10795.445313	5952.930664	50.056999
627.068604	1102.287109	10906.147461	6015.734375	50.117474
627.404724	1102.631348	11006.245117	6070.235840	50.159515
627.740662	1102.609863	11092.771484	6117.210449	50.195389
628.076721	1104.029175	11155.273438	6142.997070	50.132778
628.412720	1104.889526	11191.256836	6160.526367	50.123466
628.748596	1103.620605	11195.687500	6156.590820	50.068737
629.084473	1105.943481	11178.266602	6143.427734	50.013134
629.420227	1107.277100	11111.333984	6115.876465	50.065685
629.755981	1106.911377	11027.991211	6074.150391	50.067524
630.091675	1108.180298	10910.987305	6016.014160	50.065601
630.427307	1110.503174	10777.874023	5946.780273	50.026810
630.762939	1106.266113	10644.050781	5871.845703	49.965263
631.098450	1105.362671	10515.711914	5801.471191	49.903656
631.434021	1104.781982	10400.235352	5743.335449	49.901318
631.769470	1103.685059	10291.620117	5690.770020	49.925087
632.104980	1102.846313	10191.930664	5638.526855	49.902504
632.440308	1102.029053	10108.780273	5597.683105	49.914272
632.775635	1101.813965	10030.147461	5558.086426	49.911579
633.110901	1099.211426	9979.409180	5529.201172	49.886166
633.446106	1098.480103	9941.985352	5512.403320	49.911472
633.781250	1099.641602	9918.605469	5500.250977	49.899391
634.116394	1099.232910	9898.128906	5488.701172	49.886578
634.451538	1102.158081	9885.289063	5484.615234	49.896297
634.786560	1102.867798	9865.500977	5476.785645	49.915569
635.121582	1102.502075	9830.788086	5458.009766	49.901066
635.456543	1102.308594	9802.785156	5444.846680	49.911495
635.791443	1103.534424	9758.627930	5426.263672	49.944340
636.126221	1104.502441	9707.848633	5402.625977	49.958744
636.461060	1105.190674	9659.993164	5379.956543	49.969189
636.795776	1107.190918	9596.716797	5349.716797	49.973652
637.130493	1105.943481	9518.750000	5308.012207	49.948479
637.465210	1103.878784	9428.092773	5262.179199	49.954269
637.799805	1102.028931	9344.297852	5219.291992	49.953033
638.134399	1101.233276	9254.458984	5172.232422	49.931149
638.468933	1101.254761	9165.372070	5132.206055	49.986267
638.803345	1101.125610	9083.641602	5094.545410	50.027084
639.137756	1100.050293	9002.297852	5049.378418	49.977276
639.472168	1100.394409	8935.709961	5013.739746	49.944962
639.806519	1100.007324	8868.152344	4981.025879	49.960686
640.140747	1096.695190	8796.789063	4949.107910	50.030724
640.474976	1094.071167	8722.736328	4909.404297	50.013115
640.809204	1094.759277	8651.587891	4879.594238	50.084965
641.143372	1095.899292	8599.172852	4850.945313	50.045437
641.477478	1095.770264	8539.037109	4823.027832	50.075562
641.811462	1095.469116	8489.138672	4800.831543	50.115337
642.145447	1096.630615	8438.615234	4776.742676	50.124214
642.479370	1098.974976	8393.835938	4754.395508	50.109528
642.813293	1100.846069	8347.163086	4733.984863	50.137730
643.147095	1100.846191	8300.597656	4709.895508	50.127415
643.480957	1101.039673	8259.368164	4690.151367	50.138966
643.814758	1104.373413	8223.168945	4665.610840	50.025841
644.148438	1105.362793	8195.423828	4651.544434	50.016235
644.482117	1105.986450	8168.646973	4632.982910	49.938641
644.815735	1103.061401	8131.695801	4617.884277	50.007195
645.149292	1102.717163	8109.973145	4602.226563	49.941223
645.482788	1101.899902	8092.078125	4588.676270	49.881081
645.816223	1099.942749	8076.871582	4580.611328	49.888260
646.149658	1099.706177	8067.816895	4577.556641	49.910954
646.483032	1100.502075	8075.860840	4579.750488	49.879131
646.816345	1100.093384	8077.473633	4585.105957	49.947292
647.149658	1098.200684	8077.538574	4588.246094	50.005394
647.482849	1096.200317	8084.291992	4595.559082	50.076031
647.816101	1096.824097	8078.957520	4599.021484	50.159416
648.149231	1098.308105	8086.378418	4604.548828	50.174664
648.482239	1100.523560	8096.530762	4605.452148	50.098988
648.815247	1100.953613	8095.196777	4609.323730	50.160824
649.148254	1099.426636	8089.260742	4609.925781	50.222923
649.481201	1100.222412	8077.538574	4606.850586	50.257549
649.814087	1101.082764	8073.194824	4602.656250	50.222565
650.146973	1098.630859	8060.848633	4594.848633	50.217014
650.479736	1098.931885	8054.697266	4588.783203	50.172066
650.812500	1101.921509	8054.976563	4587.406738	50.128834
651.145203	1101.104248	8043.039551	4585.836426	50.198280
651.477844	1100.803101	8051.212402	4583.793457	50.112019
651.810486	1097.705933	8047.298340	4577.835938	50.076748
652.143005	1096.716675	8036.156250	4573.534668	50.102287
652.475525	1096.716675	8036.543457	4569.598145	50.042767
652.807922	1097.426392	8025.961426	4568.179199	50.093605
653.140381	1097.168213	8024.478027	4563.941895	50.045025
653.472717	1095.383057	7998.733887	4553.789551	50.097507
653.805115	1095.727173	7972.062988	4544.949707	50.160763
654.137390	1093.770020	7941.564453	4532.754883	50.220329
654.469543	1093.296753	7907.625000	4512.946289	50.183224
654.801758	1095.619629	7876.094238	4495.675293	50.144802
655.133850	1096.867065	7834.734375	4477.823730	50.178440
655.465881	1097.490723	7790.793457	4461.262207	50.255779
655.797974	1099.082397	7760.961426	4453.842285	50.357563
656.129944	1099.921143	7724.742188	4442.895020	50.461346
656.461853	1098.114502	7702.911133	4430.506348	50.454117
656.793762	1096.974487	7684.500000	4420.763672	50.455807
657.125610	1097.189575	7687.489258	4417.321777	50.379078
657.457397	1096.845581	7706.740234	4427.946289	50.395668
657.789124	1098.265137	7744.443359	4446.422363	50.377182
658.120789	1096.652100	7805.526367	4479.372070	50.421574
658.452393	1095.963867	7895.795410	4524.410156	50.419579
658.783997	1096.393921	8007.443848	4586.762207	50.504166
659.115540	1099.706177	8137.502930	4656.792480	50.542614
659.447083	1099.082520	8251.990234	4712.691895	50.519447
659.778503	1097.383301	8362.735352	4770.139648	50.551662
660.109924	1099.276001	8457.262695	4818.962891	50.553055
660.441284	1099.770630	8524.668945	4857.161133	50.605278
660.772522	1100.394287	8568.072266	4887.014160	50.706791
661.103760	1101.082520	8577.277344	4894.305176	50.737343
661.434998	1102.028809	8569.641602	4891.079102	50.739780
661.766113	1104.007690	8515.679688	4863.634766	50.725761
662.097229	1104.029419	8421.323242	4820.554199	50.790974
662.428345	1104.717651	8297.867188	4757.234863	50.777718
662.759277	1102.179565	8148.234863	4682.623047	50.814865
663.090332	1102.609741	8003.937988	4610.141113	50.824005
663.421204	1101.942993	7856.973145	4533.271484	50.796642
663.752075	1102.846313	7713.859375	4461.735352	50.807480
664.082886	1102.867798	7589.284668	4400.072266	50.832447
664.413635	1100.889160	7478.367676	4339.354980	50.779720
664.744324	1099.233032	7379.688965	4291.499512	50.828579
665.075012	1097.899536	7287.720215	4245.816406	50.856350
665.405640	1097.963989	7214.679199	4207.510742	50.836876
665.736206	1098.394165	7161.597168	4178.883301	50.806301
666.066772	1095.727051	7110.623047	4156.364746	50.884300
666.397278	1096.867065	7076.941895	4137.479980	50.845734
666.727661	1095.555054	7038.851074	4124.575684	50.965332
667.058044	1097.469238	7009.146973	4113.176270	51.012711
667.388306	1097.512329	6988.822266	4107.240234	51.087585
667.718567	1098.673828	6970.820313	4096.830078	51.057247
668.048828	1099.899780	6964.669922	4097.195801	51.106792
668.378967	1102.889404	6962.884277	4093.238037	51.029884
668.709167	1103.921875	6958.732910	4098.615234	51.149273
669.039246	1101.878540	6962.690918	4104.508301	51.232315
669.369263	1102.416260	6956.776367	4102.035645	51.237354
669.699341	1104.846558	6948.473633	4097.927246	51.219570
670.029236	1105.083130	6938.924805	4092.635742	51.210728
670.359131	1107.147827	6934.085449	4085.194336	51.108261
670.688965	1106.502686	6921.546875	4078.504883	51.108852
671.018738	1105.384277	6902.124512	4064.890869	51.054668
671.348511	1103.878662	6880.379883	4057.212646	51.126694
671.678223	1104.308716	6849.687500	4042.028076	51.131863
672.007813	1102.867676	6814.112793	4024.520264	51.156139
672.337341	1100.157715	6783.227051	4000.904541	51.041904
672.666992	1102.201050	6750.986328	3982.794678	50.994926
672.996460	1102.115112	6716.401855	3968.685303	51.058495
673.325867	1100.673950	6688.054199	3950.102539	50.997578
673.655273	1097.275635	6651.426270	3932.702881	51.050602
673.984619	1095.382935	6617.271484	3914.936768	51.061401
674.314026	1096.415283	6586.729492	3902.720215	51.113739
674.643250	1098.243652	6561.845215	3891.471680	51.124298
674.972412	1098.802856	6540.853516	3878.114990	51.071041
675.301514	1098.243652	6515.022949	3861.252930	51.008343
675.630676	1097.404663	6495.687012	3854.585205	51.075150
675.959778	1100.243774	6470.328125	3846.584473	51.141483
676.288757	1099.189941	6442.131348	3834.475098	51.194370
676.617737	1098.265137	6422.817383	3818.150635	51.081959
676.946594	1098.566284	6406.148438	3811.935059	51.122501
677.275513	1100.673950	6395.158203	3807.740723	51.129944
677.604309	1101.899902	6392.383301	3804.729492	51.088520
677.933044	1100.781494	6398.320313	3801.997803	50.990021
678.261780	1100.803101	6410.879883	3807.073975	50.964821
678.590393	1099.340576	6432.216797	3815.419434	50.930847
678.919067	1101.254761	6468.823242	3834.668945	50.924625
679.247620	1100.523315	6513.860840	3853.918701	50.863178
679.576111	1099.125366	6559.737305	3880.545410	50.936050
679.904541	1098.179077	6620.088867	3907.903320	50.883198
680.232971	1098.006958	6676.332520	3938.143555	50.913784
680.561401	1097.490845	6732.962891	3962.211182	50.833721
680.889709	1097.082153	6787.829590	3985.956299	50.764404
681.217957	1096.350830	6834.244141	4005.829590	50.706390
681.546143	1094.006470	6873.323730	4024.434326	50.705429
681.874390	1095.318481	6900.359375	4037.554443	50.684151
682.202454	1096.393799	6914.985840	4047.383545	50.716564
682.530579	1096.157227	6905.263672	4046.157227	50.782337
682.858521	1099.017700	6874.012695	4030.800537	50.766842
683.186523	1099.426514	6833.169922	4003.980225	50.657200
683.514465	1099.641602	6772.193848	3972.943848	50.652725
683.842346	1100.157715	6708.701660	3936.379883	50.569672
684.170166	1101.727905	6635.251465	3899.536865	50.561077
684.497925	1100.673950	6558.102051	3861.725830	50.592545
684.825623	1100.609375	6474.780762	3824.517090	50.685165
685.153320	1103.814087	6395.049805	3785.329102	50.678429
685.481018	1100.932007	6318.846680	3747.023438	50.711666
685.808533	1097.920898	6247.827637	3709.212402	50.705608
686.136047	1096.910034	6188.508301	3676.025146	50.654335
686.463623	1094.716309	6143.836426	3654.452881	50.696686
686.791016	1093.898926	6115.273438	3638.128662	50.667995
687.118408	1093.038696	6102.132324	3632.471191	50.696449
687.445740	1093.705566	6096.776855	3629.546631	50.685688
687.772949	1094.221558	6093.271484	3628.556885	50.696342
688.100220	1095.705688	6093.701660	3625.245117	50.611076
688.427429	1093.985107	6090.109375	3624.792969	50.655426
688.754517	1094.995972	6091.464355	3620.276611	50.541313
689.081604	1098.157593	6083.226563	3615.050049	50.488621
689.408630	1102.158203	6065.138672	3605.715820	50.444641
689.735657	1102.394653	6042.167480	3596.187500	50.483959
690.062622	1104.502441	6012.873535	3579.540527	50.424835
690.389465	1104.244385	5970.202637	3560.376709	50.475822
690.716248	1105.685425	5911.765137	3534.179688	50.529629
691.043091	1103.599121	5852.058105	3504.670410	50.565273
691.369812	1101.125732	5789.728027	3472.430420	50.575939
691.696533	1100.910645	5724.429688	3441.264893	50.618462
692.023132	1104.050781	5671.025391	3410.250244	50.497314
692.349670	1102.287109	5605.705078	3381.687744	50.614902
692.676270	1101.039673	5552.150391	3351.554932	50.560753
693.002747	1098.523315	5502.918457	3325.616211	50.565235
693.329163	1099.146973	5454.503906	3301.032715	50.555805
693.655518	1098.566284	5414.843262	3277.610107	50.484341
693.981873	1098.286743	5380.150879	3255.973389	50.391289
694.308167	1097.318726	5352.255371	3240.014160	50.357868
694.634399	1099.340576	5318.573730	3226.356934	50.412388
694.960571	1100.588013	5295.774902	3218.807129	50.491653
695.286743	1100.222412	5279.320801	3210.225586	50.489433
695.612854	1098.652222	5266.910645	3204.203125	50.513924
695.938904	1098.630737	5266.072266	3205.063965	50.544998
696.264832	1098.845825	5277.858887	3208.913818	50.492012
696.590820	1100.846191	5295.279785	3215.603027	50.418175
696.916687	1100.394409	5332.553223	3231.712402	50.360065
697.242554	1100.114868	5381.053711	3256.941406	50.382092
697.568359	1099.856689	5452.417480	3295.548340	50.445976
697.894043	1100.738525	5550.967285	3339.446045	50.305450
698.219788	1099.534058	5673.821777	3395.990479	50.203590
698.545349	1101.792358	5811.623535	3453.675537	49.935619
698.870972	1102.136597	5945.833984	3515.876709	49.832600
699.196533	1102.846313	6066.235840	3574.765625	49.803051
699.521973	1101.211670	6169.517578	3618.943115	49.675999
699.847412	1101.125488	6241.720215	3656.668213	49.712978
700.172852	1103.534424	6290.349609	3677.939697	49.633640
700.498169	1104.201172	6309.813965	3685.381104	49.584557
700.823486	1103.749512	6299.876953	3675.874756	49.500813
701.148682	1104.244263	6248.881348	3646.473389	49.415127
701.473816	1103.663574	6161.343750	3599.607666	49.349583
701.799072	1104.351685	6041.027832	3536.696777	49.270908
702.124146	1100.867554	5895.203125	3468.408447	49.382046
702.449158	1100.544922	5739.484863	3393.259277	49.423237
702.774109	1103.018433	5585.810059	3313.614990	49.312950
703.099060	1102.674316	5439.813965	3239.239746	49.262085
703.424011	1102.502197	5303.388672	3172.500244	49.275265
703.748840	1100.630981	5186.169434	3115.052246	49.306137
704.073608	1099.426514	5079.683105	3059.196045	49.237267
704.398315	1100.846069	4983.585449	3012.739014	49.240829
704.723022	1103.513062	4910.414551	2972.906250	49.105373
705.047668	1101.942993	4846.686523	2944.838135	49.212852
705.372253	1101.770996	4791.173828	2917.071289	49.203094
705.696716	1102.953857	4744.007324	2893.046631	49.164143
706.021240	1102.674316	4704.539551	2874.958252	49.204617
706.345764	1097.641357	4671.353027	2860.289551	49.322620
706.670044	1099.942749	4651.285645	2850.353027	49.288689
706.994446	1097.189697	4638.187500	2837.362305	49.143566
707.318665	1095.318604	4627.347168	2832.307617	49.178226
707.642883	1094.587158	4623.282227	2830.737549	49.200920
707.967102	1093.038574	4619.604980	2831.856201	49.306248
708.291260	1092.113770	4615.281250	2832.178711	49.389221
708.615295	1095.447510	4613.969727	2830.006592	49.297943
708.939331	1096.630493	4619.562012	2835.168457	49.349182
709.263367	1096.415527	4626.874512	2840.029297	49.387737
709.587280	1097.641479	4638.832520	2843.277344	49.295162
709.911194	1098.888794	4662.556152	2851.859131	49.190063
710.234985	1098.071533	4684.344238	2863.193604	49.218845
710.558716	1101.104248	4710.605469	2876.012451	49.173225
710.882568	1104.373413	4740.694824	2891.390869	49.143551
711.206177	1105.212158	4770.397949	2903.822510	49.072830
711.529785	1105.319702	4803.110840	2916.490479	48.979805
711.853394	1104.459351	4831.093262	2930.169678	48.990871
712.176880	1103.857178	4846.105469	2935.718506	48.950821
712.500427	1102.394653	4857.935059	2939.202881	48.909290
712.823792	1100.458984	4866.709961	2941.031006	48.870136
713.147217	1100.351440	4868.839355	2939.009521	48.790340
713.470520	1099.878052	4855.547363	2932.556885	48.797661
713.793823	1100.437378	4835.544922	2922.405273	48.779530
714.117004	1100.523438	4811.112305	2910.081055	48.767399
714.440247	1098.200684	4783.754395	2892.616211	48.687813
714.763367	1098.415771	4748.201172	2878.034180	48.759537
715.086365	1097.232788	4712.841797	2862.161133	48.814140
715.409485	1096.781128	4687.011230	2846.094482	48.724270
715.732361	1097.275879	4667.696777	2837.448242	48.738579
716.055298	1097.405029	4649.586426	2829.318604	48.756340
716.378174	1100.308472	4628.573242	2814.800781	48.593075
716.700928	1100.760132	4606.527832	2806.735107	48.661953
717.023804	1101.340820	4585.686035	2796.110107	48.639534
717.346558	1101.728027	4558.823242	2785.119385	48.693810
717.669189	1098.609253	4527.421387	2771.246826	48.781841
717.991760	1097.469238	4488.470215	2754.577881	48.867832
718.314392	1096.587402	4450.594238	2735.070068	48.851501
718.636902	1099.577026	4408.395508	2713.067383	48.763340
718.959351	1100.157715	4350.775391	2688.418945	48.860291
719.281738	1098.566284	4297.457031	2660.243408	48.819336
719.604065	1098.781250	4234.267090	2629.164307	48.808483
719.926453	1097.727417	4175.249023	2603.698975	48.934559
720.248718	1095.963745	4124.210449	2576.168457	48.879929
720.570923	1096.028198	4073.709229	2549.648926	48.817207
720.893066	1093.705322	4031.316406	2525.861328	48.752403
721.215088	1096.178833	3985.740723	2505.901855	48.786736
721.537170	1098.501709	3947.241943	2486.523193	48.724045
721.859192	1100.587891	3913.947754	2471.360107	48.723671
722.181152	1099.103882	3881.728271	2457.143311	48.804264
722.503052	1100.480469	3859.360107	2442.668213	48.649738
722.824951	1102.652832	3835.615479	2434.344727	48.727043
723.146790	1103.190552	3823.097412	2427.375977	48.684956
723.468506	1104.330444	3809.010010	2422.385986	48.732407
723.790161	1104.480957	3791.265625	2414.470947	48.756790
724.111816	1107.599609	3779.392822	2410.212646	48.754261
724.433472	1109.083618	3764.789063	2405.674316	48.822834
724.755005	1108.933105	3761.132813	2401.974854	48.753559
725.076477	1107.642578	3755.927979	2402.448242	48.892227
725.397888	1106.309082	3752.292969	2401.243896	48.939632
725.719299	1106.760864	3754.831055	2398.985352	48.798721
726.040710	1105.642456	3757.368652	2402.168701	48.893673
726.361938	1102.781738	3763.111572	2404.900146	48.945751
726.683167	1101.319336	3769.628174	2410.470703	49.062962
727.004395	1098.523315	3782.791260	2415.675537	49.069324
727.325500	1098.888916	3802.943848	2426.881348	49.111149
727.646667	1097.361816	3818.666504	2436.904053	49.224266
727.967651	1096.738037	3837.765625	2447.614990	49.283596
728.288635	1095.533569	3854.434570	2459.853271	49.451565
728.609558	1096.609009	3870.242920	2467.445557	49.423847
728.930481	1097.748901	3888.051514	2476.156250	49.399921
729.251282	1097.533813	3895.902100	2484.673584	49.569595
729.572021	1097.856567	3901.946045	2489.835449	49.641033
729.892761	1101.147217	3904.398193	2493.749756	49.678127
730.213440	1103.082886	3907.000244	2496.244873	49.686268
730.534119	1103.125854	3909.043701	2498.460205	49.728268
730.854675	1105.298340	3910.914795	2499.578613	49.696041
731.175171	1103.986328	3916.764893	2500.094727	49.634495
731.495605	1106.180176	3921.561035	2498.868652	49.467144
731.816101	1105.470215	3924.852295	2498.438477	49.406864
732.136475	1105.083130	3927.583008	2502.825928	49.521446
732.456787	1101.405273	3927.024170	2506.138428	49.714176
732.777039	1100.803101	3935.347900	2512.182129	49.792084
733.097229	1101.018066	3941.176758	2519.408936	49.940552
733.417480	1098.867310	3944.983398	2519.495117	49.914612
733.737549	1097.125122	3943.112305	2522.549072	50.085392
734.057617	1098.179077	3932.616455	2517.365723	50.069427
734.377563	1095.189331	3911.086670	2507.601074	50.158493
734.697510	1096.071289	3878.867432	2498.352539	50.391087
735.017517	1093.770020	3843.358398	2488.953369	50.741535
735.337341	1093.189331	3805.761963	2476.629395	51.001030
735.657166	1093.683960	3767.800537	2456.863525	50.976818
735.976868	1096.243286	3729.903076	2436.387939	50.885262
736.296631	1096.479980	3685.919434	2416.062744	50.960171
736.616272	1096.609009	3646.989746	2396.899414	50.984165
736.935852	1094.200195	3613.695068	2380.531494	51.055126
737.255371	1092.995728	3579.648193	2362.529053	51.053913
737.574829	1092.716187	3553.386719	2351.925537	51.173428
737.894348	1093.167847	3539.879150	2349.000488	51.327370
738.213745	1090.952515	3535.707031	2344.247559	51.264660
738.533081	1090.780396	3536.954102	2342.612793	51.175121
738.852356	1092.436523	3542.008545	2341.279053	50.982071
739.171570	1091.425659	3550.095947	2347.322754	51.080334
739.490784	1090.414673	3554.031982	2351.366699	51.182953
739.809937	1089.769409	3559.795898	2354.807861	51.215584
740.129028	1086.263550	3556.870850	2354.205566	51.321064
740.447998	1089.360840	3549.062744	2354.894043	51.450672
740.767029	1089.791016	3542.073242	2352.915039	51.508102
741.085999	1090.866333	3529.534180	2347.129395	51.514313
741.404846	1093.941895	3505.854004	2335.558350	51.478512
741.723633	1096.566040	3479.054688	2324.352295	51.533768
742.042358	1097.619995	3447.330566	2309.253906	51.565243
742.361145	1098.308105	3413.713379	2297.015625	51.770958
742.679810	1098.630737	3378.698242	2281.465820	51.877197
742.998413	1098.071411	3342.435303	2266.323975	52.052727
743.316956	1096.544434	3307.721191	2249.934570	52.161823
743.635498	1100.953491	3277.159180	2237.374023	52.220276
743.953979	1099.835205	3247.563477	2225.802490	52.425964
744.272400	1103.276489	3222.377930	2215.478760	52.484615
744.590698	1101.018066	3197.170166	2204.789063	52.657009
744.909058	1098.652222	3172.715576	2200.315674	53.116188
745.227356	1099.361938	3152.347656	2197.304443	53.480278
745.545471	1099.835083	3136.452881	2189.841064	53.520401
745.863586	1101.706299	3118.794678	2183.797363	53.646191
746.181702	1101.835449	3099.072021	2180.678711	54.016800
746.499756	1105.083130	3085.199463	2176.463135	54.106922
746.817810	1108.782593	3073.305420	2175.151367	54.281311
747.135742	1106.696411	3063.347412	2175.645996	54.631592
747.453613	1107.449097	3057.948975	2174.871826	54.725597
747.771423	1105.448730	3051.646729	2176.118896	55.013424
748.089233	1108.997559	3048.893799	2184.163086	55.423866
748.406982	1110.008545	3053.905273	2186.959229	55.401642
748.724609	1109.685913	3058.378906	2190.056396	55.440773
749.042236	1107.018799	3059.346924	2203.843018	56.180321
749.359863	1104.480957	3064.616455	2210.252441	56.413013
749.677429	1103.362427	3072.724854	2215.457520	56.469803
749.994873	1101.577393	3079.026611	2224.082275	56.765293
750.312256	1100.243896	3083.586182	2231.588379	57.042320
750.629639	1103.491699	3088.361084	2237.460205	57.130634
750.946960	1104.222900	3091.178711	2246.106445	57.468994
751.264282	1104.782104	3090.511719	2254.171875	57.882492
751.581482	1103.943237	3088.726563	2258.301025	58.160393
751.898621	1101.728027	3083.779785	2264.667725	58.673527
752.215698	1100.243774	3078.725586	2273.335449	59.292519
752.532715	1102.738770	3077.456787	2275.636963	59.395729
752.849792	1101.534424	3074.101318	2284.691650	59.980587
753.166748	1101.620483	3069.283447	2297.015869	60.752041
753.483643	1101.469849	3068.767090	2305.941650	61.224697
753.800476	1100.501953	3066.680664	2312.221924	61.628170
754.117310	1095.877808	3065.132568	2321.470459	62.236370
754.434082	1092.780518	3060.593994	2330.783447	62.912617
754.750732	1091.791138	3060.551025	2341.687988	63.486504
755.067383	1092.264404	3061.110352	2353.625244	64.066002
755.383911	1093.511963	3057.410889	2365.067383	64.746483
755.700562	1093.425903	3055.905273	2371.089844	65.104576
756.016968	1093.382935	3049.216309	2380.639404	65.816261
756.333435	1095.490601	3043.925537	2390.877197	66.483444
756.649780	1097.447754	3042.161621	2394.705322	66.706863
756.966064	1096.996094	3042.914795	2405.416504	67.239212
757.282410	1097.017578	3046.441650	2419.504150	67.839859
757.598633	1096.630493	3049.990723	2436.000977	68.567513
757.914795	1100.329956	3059.734131	2450.217529	68.892761
758.230896	1099.577148	3072.273438	2464.520508	69.191765
758.546936	1096.673706	3082.403320	2483.361572	69.832664
758.862976	1095.146606	3093.996094	2500.352783	70.300751
759.178894	1094.221558	3103.352295	2521.925537	71.060783
759.494812	1095.296997	3115.203125	2542.916992	71.667686
759.810669	1094.931274	3124.688232	2558.704102	72.115669
760.126526	1094.027832	3134.172852	2579.114990	72.793213
760.442261	1093.662354	3138.109131	2596.837646	73.524796
760.757935	1092.414917	3141.571777	2616.345703	74.368675
761.073608	1095.877808	3145.593750	2628.927979	74.793304
761.389160	1094.006592	3143.851563	2641.058594	75.471657
761.704712	1095.576538	3141.012451	2655.210693	76.249474
762.020203	1098.351074	3145.658447	2669.986816	76.765991
762.335571	1100.458862	3166.349365	2693.021729	77.088440
762.650940	1102.394653	3207.171631	2740.941650	77.848969
762.966370	1100.329956	3283.697021	2813.961426	78.485718
763.281677	1100.867676	3390.075928	2910.360596	79.044487
763.596863	1098.243652	3507.316162	3014.696045	79.551460
763.911987	1100.415894	3602.295898	3107.417236	80.219734
764.227112	1102.867798	3678.735352	3178.544434	80.581650
764.542236	1103.319458	3740.076416	3235.260986	80.854683
764.857178	1103.685059	3780.877441	3279.739746	81.281219
765.172119	1102.609863	3804.622070	3313.464111	81.822510
765.487061	1099.082397	3818.322754	3330.756348	82.069756
765.801880	1095.899292	3806.385742	3336.413330	82.660965
766.116760	1094.608643	3769.692871	3309.829590	82.809387
766.431458	1094.243042	3686.671875	3253.693115	83.298347
766.746155	1093.124634	3573.044678	3170.414307	83.764381
767.060791	1095.296997	3442.340576	3072.100830	84.225273
767.375427	1094.716309	3328.520264	2976.906494	84.259415
767.689941	1093.232300	3229.862549	2903.048096	84.704208
768.004395	1090.027466	3144.906006	2841.298096	85.225021
768.318848	1087.769165	3074.574463	2789.657715	85.659554
768.633179	1088.134888	3014.631836	2743.028320	85.901688
768.947632	1090.457764	2957.291260	2707.862549	86.638939
769.261841	1091.188965	2908.618408	2674.933594	87.142014
769.576111	1091.877197	2861.257813	2645.360107	87.798119
769.890259	1093.038818	2827.167725	2617.033691	87.882446
770.204285	1094.501221	2789.485596	2591.611572	88.325912
770.518433	1092.630127	2756.814697	2568.383057	88.677238
770.832458	1091.081543	2725.714111	2553.370361	89.456726
771.146362	1090.844849	2697.301758	2535.110107	89.903763
771.460205	1091.619263	2670.524170	2516.505615	90.245232
771.774109	1093.490356	2651.468262	2502.589600	90.444107
772.087952	1094.608765	2632.154053	2488.437500	90.652855
772.401672	1094.888550	2615.657227	2473.252686	90.636017
772.715332	1098.071411	2602.666504	2462.025635	90.652580
773.028992	1098.630737	2589.718506	2453.078369	90.836212
773.342590	1098.049927	2572.082031	2442.926270	91.237930
773.656128	1097.103638	2557.994385	2435.161865	91.591942
773.969604	1099.555664	2543.970947	2428.816895	92.027634
774.283020	1100.200928	2532.851563	2419.267334	92.071739
774.596375	1099.577148	2521.043701	2411.244873	92.275665
774.909729	1100.695557	2507.816162	2406.018555	92.765541
775.223022	1101.900024	2492.523926	2400.577148	93.388092
775.536194	1105.836060	2481.941895	2396.813232	93.813797
775.849304	1105.857544	2466.456055	2389.543457	94.347153
776.162476	1104.674561	2453.142822	2382.101807	94.731728
776.475525	1104.739014	2438.840088	2372.079102	94.995804
776.788513	1105.427246	2430.839111	2363.626221	94.928902
777.101440	1103.857178	2424.859863	2357.281494	94.884315
777.414307	1102.502075	2417.826660	2352.119385	95.004478
777.727173	1100.566406	2414.213379	2349.000488	95.035736
778.039978	1102.781738	2408.384521	2343.129150	95.001900
778.352722	1101.211792	2403.846191	2340.096191	95.106071
778.665405	1098.566284	2402.491455	2337.967041	95.051521
778.977966	1092.823608	2397.759521	2331.600586	94.930099
779.290649	1092.436401	2399.566162	2332.052246	94.834946
779.603149	1092.156860	2396.124756	2330.890869	94.997276
779.915588	1090.328613	2397.006836	2332.417969	95.057014
780.227966	1090.199585	2391.801514	2334.246094	95.578110
780.540405	1090.048950	2385.219971	2332.847900	95.956360
780.852722	1088.307007	2382.596191	2329.514648	95.898788
781.164917	1089.554321	2373.412354	2326.309570	96.331154
781.477173	1089.876953	2365.260742	2322.309326	96.632278
781.789246	1090.737305	2355.926270	2316.846191	96.911125
782.101379	1091.360962	2343.107666	2305.898682	97.027435
782.413452	1092.500977	2335.429199	2298.392578	97.020210
782.725403	1091.683716	2324.244873	2288.283691	97.082405
783.037292	1092.586914	2315.189941	2279.594482	97.088554
783.349182	1094.264648	2301.854980	2272.302979	97.552811
783.661072	1094.049561	2294.843262	2262.194336	97.281052
783.972839	1094.845337	2286.003662	2254.494385	97.354736
784.284546	1096.609009	2271.679443	2245.697510	97.788902
784.596191	1097.211182	2261.699463	2238.212891	97.983101
784.907898	1095.383057	2254.236084	2233.136963	98.179314
785.219421	1096.652100	2247.138428	2227.544678	98.296913
785.530884	1095.189453	2243.331787	2224.985352	98.402077
785.842346	1094.737793	2236.341553	2223.501465	98.875259
786.153748	1096.479858	2227.588135	2218.576172	99.203262
786.465149	1096.845581	2220.232178	2212.575195	99.318405
786.776428	1098.093018	2214.403320	2209.671631	99.576134
787.087646	1100.114746	2210.489014	2209.155518	99.879906
787.398804	1100.028809	2215.650879	2216.489746	100.075195
787.709961	1101.448242	2228.491211	2230.233398	100.154579
788.021057	1103.448486	2243.998535	2246.106445	100.184814
788.332031	1105.255127	2260.581299	2263.656738	100.266197
788.643005	1103.792725	2278.411377	2277.120850	99.890129
788.953918	1105.513306	2290.907715	2290.606445	99.974586
789.264832	1108.137329	2298.671875	2305.059570	100.536537
789.575623	1107.040527	2307.898926	2315.319092	100.617905
789.886353	1104.803589	2315.555664	2321.642334	100.502716
790.197083	1102.480835	2321.470459	2320.803711	99.945305
790.507690	1098.695313	2320.459473	2320.416504	99.996483
790.818359	1099.792236	2312.114258	2307.748291	99.639870
791.128845	1098.394287	2292.391357	2289.982666	99.798264
791.439331	1097.297363	2270.732666	2266.366943	99.627953
791.749756	1095.619629	2247.246338	2242.858398	99.618980
792.060120	1096.092896	2224.662842	2222.017090	99.765564
792.370483	1097.361694	2201.928711	2202.789063	100.077888
792.680786	1093.597778	2184.206055	2180.614258	99.670662
792.990967	1093.619263	2169.795898	2165.644531	99.614250
793.301086	1095.189453	2154.396240	2150.825684	99.662903
793.611267	1093.275269	2141.577393	2142.028809	100.043060
793.921326	1095.254028	2130.070557	2133.188965	100.301346
794.231323	1095.834839	2122.757568	2127.704346	100.481712
794.541260	1097.576782	2120.929443	2124.413818	100.340485
794.851074	1098.308105	2121.144287	2122.650146	100.147224
795.161011	1099.297607	2123.252197	2124.929932	100.163849
795.470764	1099.512573	2126.284912	2131.554443	100.513214
795.780518	1099.598755	2132.049072	2136.458008	100.427032
796.090149	1102.050659	2141.147217	2144.910889	100.362206
796.399780	1099.663208	2146.158447	2153.212891	100.674103
796.709412	1098.458618	2155.600586	2163.106445	100.710014
797.018860	1099.512573	2160.504395	2167.451172	100.654747
797.328308	1100.222412	2166.117920	2168.440430	100.217896
797.637756	1098.953369	2165.515625	2170.290283	100.447670
797.947205	1098.738403	2166.655518	2170.827881	100.390701
798.256470	1097.942505	2161.364502	2171.473389	100.950600
798.565674	1098.243652	2157.278076	2165.881104	100.812347
798.874817	1099.125488	2148.309082	2157.579102	100.883545
799.183960	1098.501831	2141.921387	2145.211914	100.315361
799.493103	1098.480225	2131.447021	2132.629883	100.114510
799.802124	1101.749512	2121.531494	2121.510010	99.997894
800.111084	1102.265503	2105.830811	2108.648438	100.280762
800.419983	1103.319458	2098.023438	2099.464600	100.144882
800.728821	1102.846313	2086.774658	2094.044189	100.738831
801.037659	1104.997070	2080.709473	2084.451660	100.383537
801.346436	1102.781738	2071.482666	2072.471924	100.102119
801.655151	1102.953979	2065.804443	2064.126709	99.825752
801.963745	1103.642090	2057.674316	2057.566650	99.988716
802.272400	1102.201050	2050.490479	2049.565674	99.902473
802.580933	1102.201050	2039.693359	2045.221191	100.589638
802.889404	1100.630981	2028.745972	2039.026855	101.107719
803.197815	1099.082520	2021.282837	2029.778564	100.921242
803.506226	1099.297607	2016.185425	2022.379761	100.675583
803.814575	1100.566528	2007.926147	2018.852661	101.204208
804.122864	1101.190308	2004.979614	2015.583252	101.173241
804.431030	1100.007324	2001.473877	2017.325317	101.758408
804.739197	1102.201172	2001.990112	2019.648071	101.962456
805.047241	1102.416138	2005.754028	2021.971069	101.795235
805.355408	1101.426758	2007.345703	2022.809814	101.707008
805.663391	1099.146973	2007.990601	2023.476563	101.703918
805.971313	1099.168457	2010.550049	2027.111328	101.817162
806.279175	1098.286621	2015.131226	2029.928833	101.613968
806.587036	1097.641479	2015.045410	2032.101196	101.859138
806.894836	1098.566284	2019.046021	2033.628418	101.584221
807.202576	1098.351074	2019.497314	2031.348511	101.286568
807.510193	1096.888550	2016.873535	2029.068726	101.325584
807.817810	1095.210938	2012.937622	2021.368774	100.918701
808.125427	1093.791504	2003.044067	2016.056274	101.431091
808.432922	1094.114136	1993.773804	2007.151855	101.487015
808.740295	1094.587280	1982.503540	1999.150879	101.874878
809.047729	1097.576904	1975.276978	1990.977783	101.788857
809.355103	1097.039185	1967.017944	1981.664917	101.683601
809.662415	1098.329590	1958.005981	1970.416382	101.443611
809.969604	1100.652466	1948.585449	1963.361450	101.742592
810.276794	1098.867310	1934.863403	1956.586426	102.598457
810.583923	1098.996460	1925.744141	1948.865112	102.796616
810.890991	1101.254761	1915.011597	1940.649170	103.150520
811.197998	1102.093628	1908.214844	1936.971069	103.567230
811.505005	1103.018433	1904.429321	1931.035034	103.319862
811.811829	1101.706421	1894.557129	1925.335449	103.881981
812.118713	1101.899902	1888.190918	1918.173096	103.813118
812.425537	1099.835205	1879.695313	1911.742188	104.109314
812.732300	1098.222168	1872.963257	1904.429321	104.061493
813.038940	1097.684448	1866.187988	1899.267578	104.304413
813.345581	1098.845825	1863.585571	1890.836426	103.563416
813.652100	1099.060913	1860.918823	1884.212036	103.057419
813.958740	1097.426270	1856.810913	1878.705811	102.883240
814.265137	1096.953125	1852.681152	1874.145996	102.840286
814.571533	1097.921021	1844.830811	1868.381958	103.153145
814.877930	1098.329590	1838.356934	1865.628906	103.685265
815.184265	1099.039429	1836.184448	1861.134033	103.384621
815.490540	1097.770386	1834.356323	1856.165649	102.960869
815.796692	1097.254150	1834.635864	1856.058105	102.905174
816.102844	1099.211426	1837.539551	1856.230103	102.531471
816.408936	1100.523438	1839.324341	1856.767578	102.361023
816.714966	1099.211426	1841.475098	1859.155029	102.381897
817.020935	1100.673950	1842.270996	1862.897583	102.781372
817.326843	1103.964722	1845.712402	1866.639893	102.821373
817.632690	1102.158081	1852.294067	1869.048828	102.233566
817.938477	1101.835449	1856.961304	1873.027710	102.127647
818.244263	1101.792480	1867.629272	1880.319092	101.656990
818.549988	1100.760010	1873.328857	1888.470581	101.959923
818.855652	1103.470093	1885.846558	1902.063721	102.072807
819.161194	1103.706665	1902.515503	1922.152222	102.458252
819.466797	1103.771118	1925.163330	1948.262817	102.812233
819.772278	1103.255005	1952.435425	1981.815552	103.459824
820.077698	1102.738770	1988.138794	2019.045776	103.490738
820.383057	1101.813843	2028.810669	2061.760986	103.554520
820.688354	1098.673706	2080.752441	2115.358887	103.523796
820.993652	1101.663330	2157.772705	2195.927979	103.612816
821.298828	1101.684814	2304.586670	2346.312256	103.468742
821.604004	1100.630981	2572.469482	2626.669678	103.682480
821.909058	1099.835205	2981.638184	3049.302490	103.595718
822.214111	1096.953125	3465.762695	3549.536621	103.536545
822.519165	1097.985474	3929.153320	4028.004639	103.491531
822.824036	1096.824097	4320.793457	4431.258789	103.426376
823.128906	1095.361450	4639.757813	4760.891113	103.417603
823.433716	1096.178833	4895.488281	5029.182129	103.518898
823.738525	1094.673340	5104.998047	5241.746582	103.409912
824.043213	1094.049683	5264.351074	5407.314941	103.428139
824.347900	1090.887817	5364.987793	5513.844238	103.482758
824.652466	1090.414551	5375.397949	5528.104004	103.563751
824.957031	1093.103149	5241.897461	5386.086426	103.475441
825.261536	1093.318237	4947.731445	5086.070801	103.589119
825.565979	1093.167725	4563.447266	4685.935547	103.529640
825.870300	1095.705688	4180.711426	4288.316406	103.487999
826.174622	1097.125122	3872.071045	3973.653809	103.660721
826.478821	1098.157593	3660.776367	3748.787354	103.434425
826.783142	1096.867188	3533.771240	3614.017822	103.292976
827.087280	1097.469482	3464.859375	3546.051758	103.429619
827.391357	1099.361938	3414.552246	3491.808838	103.336929
827.695435	1101.211670	3371.278320	3448.556396	103.404221
827.999451	1102.416138	3325.917725	3399.066162	103.289787
828.303406	1102.179565	3276.857910	3350.629883	103.392319
828.607239	1101.964478	3237.540771	3301.419678	102.991180
828.911011	1102.459106	3190.309326	3255.392822	103.117249
829.214844	1099.942749	3143.464844	3208.182129	103.166939
829.518616	1098.609375	3076.682617	3135.872559	102.992302
829.822205	1098.781372	2972.583496	3029.450684	103.034859
830.125793	1098.673706	2829.640869	2882.335693	103.044243
830.429382	1099.168457	2664.308838	2710.378662	102.943497
830.732849	1098.824341	2509.278564	2550.380371	102.914085
831.036316	1096.824097	2377.025635	2410.019043	102.577202
831.339661	1096.651978	2268.861816	2295.101563	102.238487
831.642944	1093.748413	2178.850830	2198.229248	101.785858
831.946228	1096.286377	2102.174561	2121.531494	101.924362
832.249512	1098.222046	2045.307129	2063.976074	101.971199
832.552673	1099.082275	2010.528564	2026.724243	101.776924
832.855774	1102.932373	1996.849487	2015.583252	102.095695
833.158813	1104.997192	2013.561401	2037.499634	102.634735
833.461731	1103.921753	2059.653076	2086.709961	102.831017
833.764771	1103.900269	2119.768066	2150.352295	103.010651
834.067627	1103.104492	2185.711914	2223.264648	103.468727
834.370422	1102.975464	2241.912354	2283.853027	103.682442
834.673157	1101.663452	2288.176025	2335.364746	103.977097
834.975891	1101.900024	2330.245850	2380.015381	104.051750
835.278564	1098.308105	2362.443115	2413.309814	104.023834
835.581177	1096.910156	2382.402588	2433.785400	103.997131
835.883728	1095.985229	2384.703857	2436.086914	103.987144
836.186218	1092.802002	2366.636963	2417.783447	104.015160
836.488647	1090.307129	2323.083252	2372.379883	103.998833
836.791077	1092.092285	2254.881348	2301.425049	104.002762
837.093384	1090.586792	2176.441650	2217.092041	103.743629
837.395630	1090.737305	2090.258789	2127.510986	103.727005
837.697815	1093.017090	2016.034790	2047.092285	103.364777
838.000061	1094.286255	1949.897705	1975.513550	102.993866
838.302124	1096.006714	1888.363281	1910.300903	102.768654
838.604126	1098.996338	1832.979980	1856.810669	103.246758
838.906128	1098.566284	1788.243042	1811.514771	103.374298
839.208069	1100.910645	1753.615112	1774.284302	103.166702
839.510010	1100.050293	1732.945801	1748.926514	102.525017
839.811829	1101.061157	1722.105835	1731.698364	101.544579
840.113586	1101.985962	1716.105103	1723.740356	101.243286
840.415222	1102.351685	1711.566895	1719.051636	101.228584
840.716919	1102.050537	1712.921875	1715.287842	100.387314
841.018555	1100.630981	1710.857056	1714.233887	100.553375
841.320068	1100.523560	1709.136353	1712.534790	100.558388
841.621521	1097.641357	1705.630737	1711.050781	100.891472
841.922974	1097.512329	1703.781128	1705.845703	100.340538
842.224365	1096.221802	1698.167480	1700.834351	100.443039
842.525635	1095.727173	1688.209351	1693.220581	100.845802
842.826965	1097.619873	1671.691040	1677.154175	100.951645
843.128174	1098.673706	1646.139526	1655.603027	101.728600
843.429260	1097.447754	1618.781250	1629.642700	102.083397
843.730408	1101.663208	1595.208496	1606.113159	102.209457
844.031433	1103.362427	1574.797241	1582.217529	101.573982
844.332397	1105.384277	1555.224976	1560.214844	101.109253
844.633362	1105.083130	1538.384277	1540.061768	100.387138
844.934204	1106.029419	1523.844604	1524.059814	100.051506
845.235046	1107.234009	1509.713989	1509.283691	99.893089
845.535828	1108.266357	1497.755371	1495.239136	99.353966
845.836487	1108.546021	1485.108521	1481.560059	99.057671
846.137146	1107.642700	1474.763428	1466.074097	97.633110
846.437744	1105.556396	1465.708496	1457.557129	97.736687
846.738281	1105.147583	1457.642944	1446.136230	96.735641
847.038757	1102.179565	1449.856934	1438.522339	96.739906
847.339172	1099.749146	1439.275024	1433.575684	98.321381
847.639526	1098.329590	1433.338867	1428.456665	98.542664
847.939819	1097.748901	1427.101563	1426.650024	99.862900
848.240112	1097.512207	1421.896606	1421.187012	99.781250
848.540283	1096.479980	1416.369141	1416.605835	100.073990
848.840393	1097.533813	1413.573120	1410.820190	99.128929
849.140564	1094.888428	1410.583374	1406.626099	98.746490
849.440552	1096.888672	1405.034302	1408.067017	100.984184
849.740540	1097.082153	1402.818970	1401.571533	99.591988
850.040405	1098.910400	1400.259644	1400.259644	100.000000
850.340210	1097.985596	1397.183838	1393.936157	98.914536
850.640137	1098.695435	1395.613770	1389.785156	98.036964
850.939819	1098.652344	1392.194092	1387.032104	98.241478
851.239502	1096.910156	1388.193481	1383.311035	98.323814
851.539185	1096.178955	1387.333130	1380.730347	97.732201
851.838745	1095.748779	1385.676880	1377.418091	97.151436
852.138245	1094.458130	1379.504272	1376.321045	98.883263
852.437744	1095.920776	1376.944824	1374.170288	99.012703
852.737122	1094.608643	1377.912598	1372.922852	98.238731
853.036499	1095.641113	1375.912354	1372.772339	98.879654
853.335815	1094.802246	1372.449585	1371.438721	99.635918
853.635010	1095.963623	1369.954712	1372.191528	100.816383
853.934204	1095.899170	1371.395630	1371.503296	100.039078
854.233276	1095.985229	1372.707886	1370.944092	99.362610
854.532410	1095.791748	1372.428223	1368.255493	98.491623
854.831482	1096.157349	1368.943848	1369.760986	100.299553
855.130371	1094.974487	1366.298340	1369.029785	101.006714
855.429260	1096.049927	1364.212158	1366.061646	100.689690
855.728088	1094.479736	1360.727783	1364.190552	101.300583
856.026855	1094.221558	1355.888550	1358.834961	101.126015
856.325623	1094.264526	1354.361450	1357.221924	101.099770
856.624329	1094.737793	1354.124878	1354.834473	100.273567
856.922913	1095.124878	1352.404175	1351.436279	99.623795
857.221436	1097.426270	1348.661743	1351.608398	101.172867
857.519958	1097.727417	1345.715088	1348.016479	100.928024
857.818420	1097.942383	1343.327759	1349.199341	102.392799
858.116821	1099.856567	1341.951172	1345.435547	101.439262
858.415161	1102.179565	1343.241699	1344.704346	100.606750
858.713379	1102.738770	1342.553589	1344.360229	100.753349
859.011658	1107.018799	1343.542847	1344.188232	100.272865
859.309814	1108.115723	1343.306274	1345.607666	100.978523
859.607910	1107.470581	1341.456543	1344.704346	101.388031
859.905945	1108.868652	1340.897339	1345.048340	101.789001
860.203979	1107.707153	1340.209106	1344.940918	102.035172
860.501953	1107.879272	1338.531494	1341.607178	101.333473
860.799744	1107.707153	1335.713989	1340.811279	102.235588
861.097656	1109.642822	1335.950439	1335.950562	100.000053
861.395325	1109.513794	1336.337646	1333.885742	98.919029
861.693115	1108.416870	1335.090088	1329.670044	97.608871
861.990784	1108.804199	1335.434326	1327.884888	96.668831
862.288330	1107.384521	1333.261963	1326.981567	97.219559
862.585815	1104.739136	1334.401855	1323.368286	95.195747
862.883301	1106.244629	1334.294434	1321.238892	94.275139
863.180786	1106.072632	1332.702881	1320.550659	94.637863
863.478149	1107.018799	1330.745605	1319.217285	94.847145
863.775452	1105.319824	1330.272339	1321.368042	96.041702
864.072693	1108.072876	1331.455200	1320.701294	95.185875
864.369873	1109.750366	1331.390747	1321.583130	95.574989
864.667114	1108.997681	1328.680664	1320.787231	96.406898
864.964111	1108.223511	1327.970947	1323.024170	97.748878
865.261169	1106.653198	1327.347168	1323.776855	98.382233
865.558105	1105.190796	1328.938843	1323.626343	97.625679
865.855042	1105.362793	1327.261230	1323.863037	98.468582
866.151917	1103.878662	1326.099731	1322.593994	98.422409
866.448730	1100.652466	1325.863159	1321.970215	98.271423
866.745422	1102.373047	1327.454590	1322.766113	97.916985
867.042114	1100.781616	1327.583862	1318.808594	96.130875
867.338806	1096.609009	1324.422241	1319.668945	97.913513
867.635376	1094.673218	1321.066895	1319.131226	99.144997
867.931824	1096.458496	1322.765991	1318.421509	98.080276
868.228271	1096.781128	1320.077515	1315.109253	97.775040
868.524658	1096.307861	1319.561401	1314.485474	97.726387
868.821045	1098.824341	1318.120361	1311.625000	97.038086
869.117310	1098.458618	1315.474731	1312.764893	98.751320
869.413574	1096.888550	1314.958740	1313.861694	99.496933
869.709717	1097.856567	1312.205566	1312.270142	100.030128
870.005859	1095.038940	1308.957886	1309.646118	100.321724
870.301880	1096.437012	1308.463257	1308.011597	99.786980
870.597900	1095.490601	1308.334106	1308.742920	100.192070
870.893860	1095.813232	1311.990479	1309.216187	98.716660
871.189636	1092.371948	1311.753906	1309.001099	98.745201
871.485535	1092.845093	1311.108643	1310.076294	99.527016
871.781311	1092.006348	1310.269897	1307.947021	98.935745
872.077026	1090.264160	1310.700073	1309.861450	99.619560
872.372681	1091.963379	1311.818481	1308.936401	98.689102
872.668274	1093.210815	1312.807861	1309.689209	98.579826
872.963806	1092.715942	1314.592896	1309.151489	97.547554
873.259338	1093.275269	1318.679565	1310.721558	96.469452
873.554688	1093.812988	1319.346191	1316.249146	98.626793
873.850098	1096.695190	1320.507813	1317.518066	98.664177
874.145447	1096.501465	1318.335449	1315.367188	98.661942
874.440674	1100.265503	1317.582520	1317.345947	99.891136
874.735840	1099.362183	1320.335693	1317.109375	98.539955
875.031006	1101.577393	1323.110107	1318.636353	97.980545
875.326050	1100.437378	1323.970581	1319.453857	97.979393
875.621094	1101.190186	1325.389893	1321.690552	98.349983
875.916077	1103.599121	1325.583618	1319.948486	97.461472
876.210999	1106.502686	1326.917114	1319.324829	96.555450
876.505798	1107.363037	1322.895142	1317.754761	97.615028
876.800598	1106.997192	1321.776855	1314.335083	96.535156
877.095337	1104.007690	1322.077881	1313.324097	95.985794
877.390015	1106.201538	1323.088745	1314.205933	95.904411
877.684692	1105.728516	1322.335938	1312.076538	95.263596
877.979187	1107.470581	1319.884033	1314.270386	97.357208
878.273804	1105.534790	1319.862549	1315.324219	97.882530
878.568237	1106.136963	1322.701660	1316.421143	97.099937
878.862610	1103.061401	1325.884766	1319.088135	96.949768
879.156921	1100.889160	1330.896118	1324.271606	97.119865
879.451172	1098.071533	1337.219604	1333.132935	98.291153
879.745422	1098.759888	1348.382202	1344.145142	98.302612
880.039612	1097.555298	1361.480591	1357.716675	98.573868
880.333679	1098.587769	1381.999146	1376.407104	98.026878
880.627686	1097.017578	1415.164673	1413.013916	99.323975
880.921692	1096.221802	1469.020752	1473.300903	101.148109
881.215698	1096.350830	1556.386353	1559.999878	100.785492
881.509460	1099.362183	1671.239380	1680.036255	101.538246
881.803345	1099.469604	1812.289063	1827.903931	102.190575
882.097046	1101.512817	1959.898804	1982.030762	102.578323
882.390808	1102.115112	2098.131104	2128.457275	103.044746
882.684448	1103.685059	2225.781250	2262.624512	103.283432
882.978027	1101.082642	2336.439941	2379.542236	103.489052
883.271545	1102.566772	2432.086426	2477.124268	103.387527
883.565002	1103.147583	2508.117432	2558.102051	103.557701
883.858398	1102.588379	2560.855225	2612.861572	103.566315
884.151733	1101.211670	2581.567383	2630.412354	103.299545
884.445068	1100.846069	2557.413818	2606.731934	103.385910
884.738281	1099.233032	2489.964600	2535.518555	103.275536
885.031433	1099.168335	2383.198486	2425.418945	103.288124
885.324585	1100.738403	2262.624268	2297.295410	102.984039
885.617676	1098.738281	2142.071777	2169.451660	102.624268
885.910645	1097.576904	2026.401489	2047.716064	102.294792
886.203552	1099.168457	1921.829590	1936.110840	101.735985
886.496521	1099.942749	1824.979004	1839.754761	102.037933
886.789368	1100.673950	1740.645996	1749.313599	101.354370
887.082153	1102.760254	1661.023071	1667.131226	101.094139
887.374817	1103.728149	1595.316040	1599.294922	100.809395
887.667480	1103.577637	1537.825073	1539.975708	100.495255
887.960083	1104.222900	1492.916382	1494.185059	100.326393
888.252625	1103.642212	1455.427734	1455.750122	100.091644
888.545166	1103.190552	1428.241699	1426.413330	99.437515
888.837524	1105.599487	1404.969849	1403.485840	99.504288
889.129883	1107.255493	1386.171875	1385.031738	99.591225
889.422241	1106.696411	1371.417358	1369.158936	99.146866
889.714478	1093.511841	1322.292847	1330.573486	103.619461
890.006714	1107.707153	1357.544556	1331.283325	89.488670
890.298767	1110.072998	1317.324585	1313.539063	98.173462
890.590881	1113.858398	1319.453735	1325.841797	103.107101
890.882935	1094.694824	1328.207642	1302.892578	89.159027
>>>>>End Processed Spectral Data<<<<<
