Jaz Data File
++++++++++++++++++++++++++++++++++++
Date: Thu Dec 19 19:55:21 2019
User: jaz
Dark Spectrum Present: Yes
Reference Spectrum Present: Yes
Processed Spectrum Present: Yes
Spectrometers: JAZA2928
Integration Time (usec): 32200 (JAZA2928)
Spectra Averaged: 10 (JAZA2928)
Boxcar Smoothing: 5 (JAZA2928)
Correct for Electrical Dark: No (JAZA2928)
Strobe/Lamp Enabled: Yes (JAZA2928)
Correct for Detector Non-linearity: No (JAZA2928)
Correct for Stray Light: No (JAZA2928)
Number of Pixels in Processed Spectrum: 2048
>>>>>Begin Processed Spectral Data<<<<<
W	D	R	S	P
190.104553	0.000000	0.000000	0.000000	0.000000
190.488098	0.000000	0.000000	0.000000	0.000000
190.871613	1222.216064	1221.506226	1211.806030	1466.534790
191.255096	1238.540649	1233.335571	1221.269531	331.812866
191.638535	0.000000	0.000000	0.000000	0.000000
192.021942	1036.773560	1030.450195	1022.105103	231.972351
192.405334	1155.648560	1147.669067	1137.237671	230.727570
192.788696	1274.652466	1262.909058	1253.918823	176.555588
193.172012	1281.298462	1269.963745	1260.564819	182.921570
193.555313	1285.621704	1275.921387	1267.210815	189.796768
193.938568	1287.686401	1279.212036	1270.178833	206.594452
194.321793	1290.460938	1281.040405	1274.846191	165.752274
194.704987	1289.019897	1284.245117	1279.534790	198.650131
195.088150	1289.234985	1288.267090	1281.771606	771.093445
195.471298	1289.493042	1288.654419	1285.363525	492.416290
195.854401	1289.772705	1286.008911	1285.858276	104.002205
196.237457	1290.568481	1284.460205	1286.610962	64.789467
196.620499	1288.439331	1282.847168	1288.245605	3.464233
197.003494	1284.438721	1283.922485	1291.106079	-1291.534668
197.386475	1282.524536	1283.363403	1290.503906	951.207825
197.769424	1281.212402	1279.771484	1288.546753	-509.005432
198.152344	1276.953857	1280.287720	1288.697266	352.246338
198.535217	1276.007568	1284.933472	1287.643433	130.360641
198.918076	1276.867920	1284.051636	1286.481934	133.830658
199.300903	1277.900269	1285.406616	1286.847656	119.197617
199.683670	1277.362671	1288.159668	1286.051880	80.478012
200.066422	1276.029175	1290.396362	1284.159058	56.586460
200.449142	1272.996338	1293.257080	1285.858398	63.482674
200.831848	1272.308105	1295.923950	1283.858154	48.908051
201.214508	1273.082520	1297.494019	1280.481201	30.308182
201.597137	1270.372437	1297.322144	1281.406128	40.941788
201.979736	1270.437012	1300.462280	1282.503052	40.186287
202.362274	1269.383057	1301.989380	1281.341675	36.675762
202.744827	1266.500977	1300.075073	1280.567261	41.896240
203.127319	1266.672974	1301.387085	1278.115356	32.961761
203.509796	1265.511597	1299.752441	1274.824707	27.198833
203.892227	1264.479126	1296.504761	1272.759888	25.856667
204.274643	1262.263794	1295.128174	1271.942505	29.450460
204.657013	1263.597534	1293.515137	1270.888672	24.370729
205.039352	1263.640503	1292.095581	1271.856445	28.873379
205.421661	1264.092163	1289.751221	1270.544556	25.146646
205.803940	1264.909424	1291.364380	1267.812988	10.975503
206.186188	1265.898804	1292.547241	1266.286011	1.453020
206.568405	1264.973755	1292.353638	1264.909302	-0.235403
206.950592	1264.758911	1290.504028	1263.597534	-4.511057
207.332748	1262.328491	1288.654297	1263.640503	4.983747
207.714859	1261.661621	1287.793945	1265.705200	15.473476
208.096939	1260.478760	1288.116577	1266.415039	21.478828
208.478989	1260.220581	1289.772583	1267.296875	23.945227
208.861008	1258.392456	1290.697388	1265.318115	21.438396
209.243011	1256.542847	1291.041504	1265.963379	27.306953
209.624969	1254.563965	1292.740723	1265.103027	27.605965
210.006897	1256.112671	1290.503906	1265.124512	26.203888
210.388794	1252.155273	1290.288940	1264.651367	32.769192
210.770645	1254.585693	1292.611816	1266.156982	30.429842
211.152481	1253.273560	1292.353638	1266.823608	34.672523
211.534286	1252.133789	1291.041626	1267.490356	39.469086
211.916061	1251.208862	1291.536255	1267.232300	39.733383
212.297791	1251.488403	1293.773193	1266.823730	36.266769
212.679489	1250.240967	1292.418213	1265.081543	35.186214
213.061157	1249.832275	1292.224731	1264.952515	35.667286
213.442795	1248.907471	1290.891113	1264.737427	37.705055
213.824402	1249.208618	1290.891113	1263.704956	34.778000
214.205963	1249.251587	1292.998901	1265.145996	36.332310
214.587524	1250.778687	1292.697754	1265.554688	35.248878
214.969025	1250.004395	1290.955688	1265.189087	37.079884
215.350510	1251.638916	1293.730347	1263.920044	29.177263
215.731949	1254.628540	1297.343628	1265.748291	26.032373
216.113358	1253.961792	1301.021484	1266.393433	26.416748
216.494736	1254.542603	1302.505493	1265.941772	23.766645
216.876083	1258.156006	1306.893066	1268.953003	22.153566
217.257401	1258.543091	1309.237427	1269.533691	21.680136
217.638702	1260.457275	1314.420898	1269.791870	17.297939
218.019943	1260.607910	1316.421265	1272.308228	20.963293
218.401169	1260.048706	1319.152710	1273.598633	22.925566
218.782349	1262.521973	1321.927246	1274.996582	20.999161
219.163498	1263.059692	1323.755371	1275.598755	20.658905
219.544632	1262.479004	1325.282593	1277.427002	23.801184
219.925705	1262.070313	1328.229248	1275.340698	20.058342
220.306778	1261.704712	1329.971313	1275.534302	20.258207
220.687805	1260.328247	1330.100464	1275.426880	21.639893
221.068802	1259.102417	1331.304810	1276.717285	24.396517
221.449738	1259.575439	1335.176270	1277.491699	23.698496
221.830673	1260.844482	1340.144653	1278.136841	21.806206
222.211563	1260.564819	1345.908691	1280.782349	23.689491
222.592438	1260.005615	1350.704956	1281.556641	23.760950
222.973267	1257.661133	1356.189453	1283.750488	26.479042
223.354065	1257.489136	1360.684570	1286.030396	27.657482
223.734848	1257.983765	1367.545776	1288.933960	28.249022
224.115555	1257.058838	1371.632324	1291.643921	30.185940
224.496262	1259.274292	1378.923584	1294.590576	29.516500
224.876923	1259.166748	1387.118164	1298.505005	30.744682
225.257568	1258.413940	1396.839844	1299.107300	29.397215
225.638168	1257.467651	1405.399902	1301.623657	29.848803
226.018723	1255.510376	1415.358154	1305.344604	31.176054
226.399277	1256.671875	1429.618042	1308.893433	30.195267
226.779785	1256.284668	1448.308594	1314.635986	30.387526
227.160263	1256.564331	1469.364868	1318.916138	29.300587
227.540695	1255.811523	1498.056519	1328.207642	29.885496
227.921112	1255.682495	1535.050659	1339.585449	30.033112
228.301483	1256.327637	1587.142944	1355.867065	30.089125
228.681824	1255.940552	1654.613770	1376.901855	30.340965
229.062134	1257.187988	1742.345215	1404.109375	30.283253
229.442413	1256.822388	1835.195313	1433.618530	30.567846
229.822647	1256.736450	1917.162231	1460.180786	30.805027
230.202881	1256.370850	1976.868774	1478.204590	30.788950
230.583054	1255.919067	2022.057129	1491.023315	30.686930
230.963196	1257.231079	2059.610352	1501.003174	30.381155
231.343292	1256.671875	2089.786133	1512.811035	30.744781
231.723404	1257.381592	2115.445068	1519.285034	30.522619
232.103439	1258.865601	2118.628174	1519.026855	30.259663
232.483459	1259.683105	2104.992188	1514.725098	30.171448
232.863434	1258.586060	2070.450195	1504.702637	30.314995
233.243393	1258.285034	2015.389771	1488.291992	30.379807
233.623306	1259.682983	1957.339478	1469.085327	30.015106
234.003174	1262.436035	1916.216064	1456.180542	29.634510
234.383041	1264.672852	1894.191772	1448.265503	29.163961
234.762848	1262.823120	1883.179688	1444.695190	29.317345
235.142639	1262.758667	1874.318359	1442.200317	29.341640
235.522385	1263.877075	1869.134888	1436.522217	28.524231
235.902115	1263.984619	1861.284424	1433.747559	28.421730
236.281799	1261.790894	1867.285156	1434.693970	28.555693
236.661438	1260.521851	1877.587524	1435.726440	28.393183
237.041077	1259.962646	1886.642456	1434.801636	27.899254
237.420654	1258.521606	1899.052368	1435.554199	27.638422
237.800217	1259.618530	1908.171875	1439.318115	27.707758
238.179733	1258.392456	1913.032715	1439.554565	27.673536
238.559219	1255.639526	1920.151855	1438.866333	27.573124
238.938690	1257.015991	1925.270630	1441.232300	27.566784
239.318100	1257.059082	1934.110840	1442.458252	27.383308
239.697510	1257.037476	1949.876099	1447.770996	27.529285
240.076859	1259.962524	1975.535156	1454.567383	27.195683
240.456177	1263.360840	2010.206177	1461.987671	26.595444
240.835464	1266.350464	2052.361816	1473.666504	26.375706
241.214722	1268.243286	2118.499023	1490.141724	26.097847
241.593948	1271.835083	2203.584961	1512.423950	25.821186
241.973129	1272.007080	2313.103760	1541.223389	25.858915
242.352295	1273.104004	2449.937988	1574.969482	25.650642
242.731415	1274.028809	2594.773438	1617.985474	26.042633
243.110519	1276.136597	2738.920410	1651.860596	25.685545
243.489578	1279.879028	2854.095703	1682.660034	25.586123
243.868607	1280.524292	2936.471680	1703.759399	25.558487
244.247604	1278.610107	2992.048340	1715.610474	25.504297
244.626541	1278.545654	3030.138916	1726.364380	25.566364
245.005493	1277.706665	3060.357910	1732.730835	25.525137
245.384369	1278.093872	3082.252930	1736.731201	25.421114
245.763229	1277.039917	3105.395264	1741.097290	25.381136
246.142059	1276.695801	3143.271240	1749.657715	25.338484
246.520859	1278.373413	3211.688232	1766.261841	25.235849
246.899612	1283.535278	3337.144531	1793.146851	24.815409
247.278336	1285.127075	3500.261475	1836.119873	24.874014
247.657043	1286.783081	3670.949219	1877.544434	24.778532
248.035690	1292.074097	3825.097412	1914.903931	24.588396
248.414322	1294.633545	3956.468994	1948.413330	24.561239
248.792908	1296.332642	4057.556885	1975.191040	24.585415
249.171478	1296.440308	4134.491211	1993.580200	24.564039
249.550003	1297.472656	4170.065430	2005.366821	24.643040
249.928482	1299.150269	4163.354980	2003.861328	24.604076
250.306961	1300.655762	4105.949707	1987.493408	24.483625
250.685364	1299.193237	3984.687500	1957.037964	24.496227
251.063782	1295.364746	3801.374268	1910.236694	24.535898
251.442123	1292.891357	3596.402344	1858.273071	24.544346
251.820450	1288.761841	3427.220215	1817.536987	24.726931
252.198761	1285.148438	3321.271729	1791.813354	24.883804
252.576996	1283.771973	3252.962402	1775.058594	24.948660
252.955246	1284.266724	3202.784180	1759.422363	24.766813
253.333420	1282.395508	3155.960938	1750.517944	24.985647
253.711578	1282.094360	3120.386719	1741.290894	24.979515
254.089706	1281.234009	3094.641602	1733.010254	24.913111
254.467804	1278.696167	3074.488281	1729.827393	25.121572
254.845871	1278.954224	3059.067383	1725.095581	25.062529
255.223877	1279.362915	3035.322754	1720.105591	25.099815
255.601898	1279.986572	3003.275635	1711.179810	25.021526
255.979828	1278.072266	2957.786133	1698.317993	25.018888
256.357727	1275.921509	2903.155518	1683.541870	25.049892
256.735657	1277.986328	2861.386719	1672.766479	24.932426
257.113525	1275.469849	2853.579346	1671.906128	25.120962
257.491333	1275.814087	2883.432617	1678.208130	25.030443
257.869110	1277.921875	2942.601318	1692.897949	24.928288
258.246887	1279.448975	3030.805664	1718.470825	25.067530
258.624573	1278.932617	3157.036133	1749.937378	25.078743
259.002289	1279.792969	3341.295898	1797.943237	25.134588
259.379944	1281.255493	3600.080322	1860.918701	24.998146
259.757538	1282.567505	3934.035400	1942.477051	24.888462
260.135162	1288.331665	4299.199219	2030.703125	24.656397
260.512665	1292.977417	4625.433105	2110.992920	24.546928
260.890228	1291.622437	4865.914551	2168.161133	24.523422
261.267700	1292.805298	5017.804199	2203.197510	24.440065
261.645142	1295.235718	5103.686035	2224.060547	24.388525
262.022552	1294.805542	5155.219238	2236.857910	24.402887
262.399994	1293.084839	5181.330078	2236.922363	24.274126
262.777313	1296.268066	5170.166992	2231.136963	24.132505
263.154602	1296.010010	5093.103516	2207.155273	23.995861
263.531921	1295.536865	4939.601074	2169.172119	23.974201
263.909149	1293.988281	4691.892578	2109.078369	23.988024
264.286377	1290.611450	4405.685547	2036.919067	23.957941
264.663574	1287.385254	4147.826172	1972.158203	23.939419
265.040710	1289.364136	3970.470947	1927.077393	23.785446
265.417816	1288.245605	3871.103271	1900.988281	23.723440
265.794891	1288.611206	3844.691650	1892.127075	23.610989
266.171936	1288.976929	3865.167236	1894.621948	23.509327
266.548950	1289.170532	3915.560791	1905.806152	23.478447
266.925934	1287.621948	3973.847412	1916.796875	23.422266
267.302887	1286.912231	4037.941162	1933.142700	23.490501
267.679810	1286.202515	4101.884766	1944.369995	23.375063
268.056671	1288.869385	4178.711426	1960.350464	23.235909
268.433502	1289.901733	4260.613770	1980.632690	23.251362
268.810333	1290.138184	4344.064453	1996.785034	23.138962
269.187073	1288.159546	4420.568848	2013.453613	23.154512
269.563843	1291.127808	4495.244629	2031.176514	23.096809
269.940521	1290.525513	4550.649414	2042.231323	23.057583
270.317200	1290.826538	4602.333496	2050.103516	22.928444
270.693848	1291.837402	4668.664063	2065.954834	22.924406
271.070435	1295.063599	4802.809570	2094.001465	22.776388
271.447021	1298.569458	4975.347168	2131.210449	22.645943
271.823547	1300.892456	5153.003418	2171.064941	22.589499
272.200043	1301.236450	5297.623535	2199.541260	22.477922
272.576538	1301.731201	5417.380371	2225.329590	22.441133
272.952972	1303.602417	5524.404297	2249.741211	22.416092
273.329346	1305.452026	5626.266602	2268.883301	22.297445
273.705688	1305.495117	5704.082520	2285.079102	22.270422
274.082062	1306.118896	5763.487793	2294.628662	22.176977
274.458344	1304.914429	5788.759766	2301.468018	22.225424
274.834595	1307.861206	5770.413574	2296.478271	22.153624
275.210846	1304.936035	5690.102051	2277.228516	22.172308
275.587006	1301.774292	5586.046387	2251.203857	22.160814
275.963165	1300.913818	5493.390137	2232.599365	22.222797
276.339294	1300.182495	5446.760742	2220.318115	22.190239
276.715393	1300.763184	5423.337891	2212.295166	22.110744
277.091461	1301.064331	5414.713867	2207.821777	22.042652
277.467438	1302.591553	5411.982422	2209.284424	22.063925
277.843445	1302.526978	5416.176270	2211.456787	22.095461
278.219452	1303.602417	5431.188965	2214.532471	22.069315
278.595337	1304.226196	5454.288574	2219.049072	22.043592
278.971191	1304.570313	5486.980957	2222.103271	21.937897
279.347046	1307.344849	5512.983887	2225.566162	21.833097
279.722870	1309.753784	5537.567871	2227.802979	21.714512
280.098663	1310.377441	5561.312988	2228.727539	21.603481
280.474396	1310.979614	5597.123535	2237.804199	21.623739
280.850098	1312.055054	5649.495605	2246.945068	21.553957
281.225800	1313.108887	5724.945801	2262.302002	21.514692
281.601440	1313.517578	5833.131348	2284.154053	21.476093
281.977051	1313.797119	5982.203613	2311.318604	21.367495
282.352600	1314.700439	6137.964355	2344.441162	21.349459
282.728149	1317.496582	6282.090332	2372.638184	21.253332
283.103668	1317.475098	6392.448242	2396.597900	21.263617
283.479156	1319.604370	6480.501953	2415.094971	21.226746
283.854553	1319.668945	6564.039551	2434.107910	21.250195
284.229950	1320.851929	6661.018555	2455.508545	21.247589
284.605347	1322.895142	6765.247070	2473.424805	21.140303
284.980652	1320.787354	6863.861328	2492.416504	21.136812
285.355988	1320.916382	6953.184570	2508.848633	21.091543
285.731201	1319.260254	7031.666992	2523.216064	21.076157
286.106445	1319.776489	7098.621582	2537.109863	21.065340
286.481659	1320.228027	7166.027832	2548.358643	21.008770
286.856781	1320.464722	7232.853516	2559.027100	20.948595
287.231934	1318.894653	7298.947266	2570.555176	20.930593
287.607025	1316.464233	7346.716797	2580.685303	20.964645
287.982056	1316.894409	7365.557617	2583.008301	20.932127
288.357086	1315.732910	7357.599609	2577.695557	20.886967
288.732086	1311.667969	7326.048340	2569.866943	20.919844
289.107025	1310.850708	7290.688965	2561.908936	20.921272
289.481934	1310.571045	7261.221680	2555.047852	20.913290
289.856842	1311.818359	7236.639160	2549.498779	20.889753
290.231659	1311.022583	7237.713867	2548.638428	20.882071
290.606506	1311.689331	7248.296387	2550.531006	20.867840
290.981262	1312.184082	7264.535645	2555.435059	20.886719
291.355988	1309.947144	7285.590820	2562.166748	20.955393
291.730713	1311.646362	7312.411133	2566.532959	20.912111
292.105377	1310.377319	7339.360840	2573.910400	20.957647
292.480011	1310.484985	7357.492188	2579.136719	20.979828
292.854614	1312.549683	7364.181152	2584.900879	21.024929
293.229187	1313.861694	7380.162109	2594.644287	21.113075
293.603729	1313.517578	7405.820801	2610.710693	21.292326
293.978241	1312.506714	7443.051270	2629.336426	21.479816
294.352692	1314.033691	7473.033203	2646.779541	21.639000
294.727081	1313.603638	7494.950195	2668.008057	21.911154
295.101501	1311.560425	7516.952637	2694.763916	22.290348
295.475830	1314.722168	7571.195801	2727.413086	22.579668
295.850189	1317.367676	7669.617676	2774.515869	22.939087
296.224457	1320.572266	7832.454590	2834.953369	23.255659
296.598694	1323.067261	8046.718262	2908.661377	23.582338
296.972931	1324.938354	8301.458984	2994.177246	23.926525
297.347107	1326.938599	8538.541016	3070.230225	24.173429
297.721283	1328.874390	8714.519531	3132.216309	24.416851
298.095367	1331.175781	8806.853516	3172.801758	24.634903
298.469452	1331.648926	8820.446289	3194.697021	24.877800
298.843475	1328.057129	8795.217773	3205.730469	25.145748
299.217529	1329.046387	8756.138672	3208.225586	25.301682
299.591492	1328.444214	8698.583984	3206.096191	25.476477
299.965424	1325.196533	8618.014648	3196.890625	25.664894
300.339325	1323.841553	8485.374023	3172.737305	25.817041
300.713196	1320.120605	8301.758789	3134.582031	25.989050
301.087036	1318.830078	8080.785645	3086.963135	26.148251
301.460815	1318.313965	7865.405762	3047.087402	26.405212
301.834564	1318.830200	7684.758301	3012.437744	26.604252
302.208282	1315.969482	7537.729980	2983.208496	26.796900
302.582001	1314.270386	7416.811035	2958.474121	26.942938
302.955658	1316.012573	7311.185547	2939.977295	27.087872
303.329254	1312.506714	7221.174805	2921.824463	27.236557
303.702820	1310.958130	7142.068359	2904.747070	27.332512
304.076416	1310.807495	7075.995117	2892.637939	27.437624
304.449921	1307.430786	7021.515137	2881.733398	27.551266
304.823395	1309.603027	6969.917480	2873.883057	27.635921
305.196838	1308.527588	6920.384277	2864.053711	27.718565
305.570251	1308.183594	6865.559570	2850.396240	27.750734
305.943604	1304.828369	6805.509766	2832.630615	27.774780
306.316986	1304.312256	6761.246582	2824.199463	27.852400
306.690277	1306.420044	6728.404297	2819.918945	27.914114
307.063507	1305.581177	6712.079590	2821.682617	28.042206
307.436768	1305.989746	6721.134277	2825.252930	28.055820
307.809937	1307.258789	6748.900391	2836.845947	28.108929
308.183136	1308.011597	6803.165527	2853.514648	28.124838
308.556244	1310.054810	6877.411133	2882.098877	28.236814
308.929321	1309.172974	6967.895508	2911.887451	28.322903
309.302399	1310.226929	7060.530762	2941.568604	28.369661
309.675446	1309.043945	7157.489258	2970.841309	28.414345
310.048401	1308.054565	7253.113770	3005.082031	28.545174
310.421356	1309.237427	7348.910645	3040.032715	28.657101
310.794281	1307.839355	7451.095215	3076.983643	28.798155
311.167145	1308.248047	7564.163574	3108.234375	28.772549
311.539978	1312.119507	7661.917480	3143.765869	28.845743
311.912781	1313.324097	7733.152832	3168.929932	28.904289
312.285553	1312.012207	7749.498047	3177.533447	28.979034
312.658295	1312.399292	7722.591797	3169.898193	28.977272
313.031006	1312.227295	7670.456055	3157.918213	29.028383
313.403656	1311.839966	7615.524902	3143.658447	29.059486
313.776276	1313.603638	7565.497070	3130.344727	29.059053
314.148865	1316.313599	7539.773438	3123.677246	29.041140
314.521454	1316.442627	7537.837402	3120.278809	28.994081
314.893982	1316.958862	7538.117188	3122.042725	29.015238
315.266449	1319.109619	7502.563965	3112.901611	29.009546
315.638885	1316.851440	7438.685547	3093.200195	29.016611
316.011322	1317.281494	7355.319824	3066.895996	28.976540
316.383667	1318.270752	7282.773438	3045.280518	28.954798
316.756042	1318.722534	7224.507813	3028.117188	28.944410
317.128326	1319.754883	7172.802734	3012.330322	28.917847
317.500610	1316.872803	7118.904297	2996.005615	28.940430
317.872833	1315.517700	7058.530762	2980.046631	28.983547
318.245087	1312.592651	6980.606445	2956.925537	29.010742
318.617218	1311.775391	6885.283203	2930.341553	29.040350
318.989319	1309.839722	6806.929199	2904.402588	29.007402
319.361420	1307.043823	6756.320801	2887.647949	29.005760
319.733490	1306.484497	6723.543457	2874.979980	28.954742
320.105530	1303.193726	6701.368652	2869.366211	29.013000
320.477509	1298.741699	6679.085938	2861.666504	29.048788
320.849457	1295.622925	6653.877930	2852.159912	29.049328
321.221375	1294.181763	6644.543945	2844.051270	28.967562
321.593231	1295.364746	6637.381348	2842.846680	28.968122
321.965088	1295.988525	6641.230957	2838.760254	28.862522
322.336884	1297.451050	6650.199707	2838.222656	28.784681
322.708618	1298.461914	6680.289551	2843.513672	28.708681
323.080414	1300.526733	6712.143555	2847.815186	28.591982
323.452118	1301.537598	6778.215820	2865.774414	28.561781
323.823761	1302.053833	6891.305176	2893.648926	28.475998
324.195343	1303.752930	7021.881348	2927.739258	28.400661
324.566925	1308.140503	7158.586426	2968.109619	28.373379
324.938507	1310.484863	7291.462891	3002.845215	28.295713
325.310059	1310.893677	7398.078125	3032.203369	28.277599
325.681519	1313.496216	7515.812988	3058.679688	28.137606
326.052948	1312.979980	7614.276855	3088.145996	28.171438
326.424408	1312.786377	7704.826172	3113.288818	28.167885
326.795776	1312.786255	7749.067383	3125.161133	28.158728
327.167084	1309.667603	7759.735840	3125.548340	28.152891
327.538391	1308.957886	7717.257813	3110.643066	28.114870
327.909668	1310.183716	7621.181641	3082.274170	28.079401
328.280884	1310.743042	7526.180176	3050.980225	27.998629
328.652100	1311.216187	7433.007324	3018.847412	27.894308
329.023254	1311.689331	7353.792480	2993.274170	27.831118
329.394348	1310.377441	7294.752930	2973.830811	27.796608
329.765442	1308.334106	7218.937500	2956.409180	27.883364
330.136475	1307.710449	7146.906738	2932.599854	27.827278
330.507538	1307.065308	7068.682617	2908.016602	27.786491
330.878479	1305.237061	7011.600098	2891.455322	27.797359
331.249420	1306.183472	6968.970703	2881.410889	27.817175
331.620331	1307.000732	6957.249512	2873.388184	27.722450
331.991211	1306.032837	6973.101074	2876.506836	27.712282
332.362030	1306.054321	6997.232910	2883.152588	27.711277
332.732819	1303.387329	7032.440918	2894.831787	27.778488
333.103577	1303.451782	7069.478027	2906.230957	27.796946
333.474304	1304.312256	7093.954590	2917.781006	27.868193
333.845001	1305.193970	7117.806641	2918.103760	27.748447
334.215668	1306.075806	7138.390625	2924.835693	27.755014
334.586273	1307.280396	7167.339355	2933.051758	27.743259
334.956818	1307.753540	7190.611328	2936.944824	27.693874
335.327362	1309.108521	7225.347168	2943.525879	27.625954
335.697876	1309.818237	7243.090820	2952.408691	27.684393
336.068329	1310.441895	7256.706055	2959.484863	27.732420
336.438751	1310.312988	7261.888672	2956.667236	27.662493
336.809174	1313.345581	7257.523438	2952.537842	27.576435
337.179504	1315.646973	7261.846680	2955.247803	27.573929
337.549896	1316.485840	7286.837891	2960.452881	27.535513
337.920135	1315.797607	7324.413574	2977.702393	27.658693
338.290375	1315.668457	7372.655762	2992.327881	27.681410
338.660614	1316.980347	7418.403320	3005.426025	27.672983
339.030792	1318.636475	7470.968262	3016.975830	27.604807
339.400940	1318.249390	7504.671875	3027.170898	27.623745
339.771027	1317.582642	7537.944824	3037.107666	27.643486
340.141083	1319.088257	7578.401367	3044.183838	27.560463
340.511139	1319.712036	7612.470215	3056.808838	27.604696
340.881134	1318.528931	7659.206543	3068.036133	27.591801
341.251068	1318.141846	7686.134766	3074.294678	27.577806
341.621002	1319.733276	7708.438965	3078.553223	27.530146
341.990875	1323.131714	7728.937012	3080.897705	27.440205
342.360718	1325.304077	7735.474609	3081.457031	27.396353
342.730560	1324.400757	7744.852051	3084.962646	27.421156
343.100311	1326.293457	7763.907715	3092.856201	27.441265
343.470032	1328.272217	7813.010742	3102.534912	27.360590
343.839752	1330.057373	7885.707520	3116.923584	27.256887
344.209442	1330.982178	7960.534180	3143.120850	27.334257
344.579041	1331.993042	8052.932617	3172.564941	27.385633
344.948639	1334.509521	8144.105957	3201.170898	27.412216
345.318176	1334.853516	8244.891602	3229.625977	27.420580
345.687714	1334.552368	8335.805664	3253.543213	27.409246
346.057190	1333.756592	8412.267578	3272.599121	27.390543
346.426636	1331.971558	8482.621094	3290.687500	27.392141
346.796051	1332.552246	8530.927734	3300.236816	27.335119
347.165405	1330.508911	8543.187500	3302.000244	27.333691
347.534729	1331.261719	8527.056641	3298.795898	27.342833
347.904083	1331.498291	8478.491211	3284.148682	27.321285
348.273315	1331.261597	8410.589844	3262.447021	27.279219
348.642517	1330.874512	8338.624023	3237.970947	27.214108
349.011719	1329.304443	8267.605469	3214.140381	27.165670
349.380890	1329.691528	8203.016602	3199.665039	27.206242
349.749969	1329.261475	8157.311035	3186.330322	27.197647
350.119049	1329.390503	8122.855957	3178.350586	27.216743
350.488098	1330.616577	8108.423828	3173.296631	27.186966
350.857117	1329.541138	8104.294922	3171.510986	27.188734
351.226074	1331.283325	8127.136230	3176.780518	27.156225
351.595001	1330.100464	8150.601563	3187.921875	27.238783
351.963867	1329.304565	8194.585938	3204.332275	27.311739
352.332764	1331.240234	8246.764648	3212.914063	27.209415
352.701538	1330.745605	8309.115234	3233.669434	27.268888
353.070343	1332.810303	8385.533203	3257.866211	27.295216
353.439056	1333.756714	8478.707031	3275.395264	27.174976
353.807770	1335.348267	8577.084961	3303.785889	27.181845
354.176453	1337.864746	8670.364258	3332.413086	27.201479
354.545105	1340.381226	8772.077148	3363.018799	27.216366
354.913666	1344.833374	8899.576172	3401.389648	27.222054
355.282227	1346.661621	9039.055664	3441.888916	27.237650
355.650757	1349.651245	9191.590820	3482.108643	27.192986
356.019226	1352.554688	9350.427734	3526.802246	27.185322
356.387695	1353.350586	9525.352539	3579.131348	27.236664
356.756104	1359.179199	9727.140625	3634.170898	27.186930
357.124451	1362.641968	9968.611328	3705.577881	27.224545
357.492828	1364.685181	10213.868164	3783.544434	27.334269
357.861084	1369.115845	10435.530273	3848.713867	27.349272
358.229401	1372.191528	10625.790039	3898.741211	27.303431
358.597595	1372.944458	10758.193359	3938.724365	27.338430
358.965759	1374.062866	10865.517578	3967.674805	27.325756
359.333923	1377.073975	10958.734375	4000.238037	27.376926
359.702057	1379.246216	11091.374023	4032.671875	27.320745
360.070129	1382.429565	11249.199219	4076.655518	27.306061
360.438141	1384.451172	11443.826172	4132.576172	27.319044
360.806122	1385.612671	11654.196289	4198.498535	27.393122
361.174133	1389.699219	11906.572266	4265.109375	27.340923
361.542053	1394.022339	12192.563477	4350.754395	27.380846
361.909912	1397.442139	12476.599609	4437.410645	27.438625
362.277771	1399.184204	12736.912109	4511.226074	27.448551
362.645599	1402.862061	12921.149414	4565.662598	27.458948
363.013367	1404.152588	13021.571289	4595.795410	27.472908
363.381134	1404.346191	13047.337891	4600.505859	27.451359
363.748810	1400.732788	12986.578125	4590.870117	27.534781
364.116455	1398.990601	12855.375977	4557.124023	27.566576
364.484100	1396.818237	12650.535156	4505.805176	27.626310
364.851715	1394.904053	12370.671875	4420.590820	27.566973
365.219238	1388.322510	11973.160156	4313.007324	27.630890
365.586761	1382.493896	11498.027344	4176.797363	27.623886
365.954224	1378.321289	11039.109375	4043.877441	27.591497
366.321686	1372.342041	10633.854492	3934.939209	27.669315
366.689117	1367.481323	10359.626953	3852.283691	27.633030
367.056458	1363.287231	10173.711914	3800.470459	27.662493
367.423737	1361.437500	10042.621094	3763.154541	27.665779
367.791077	1363.050659	9931.187500	3731.903320	27.647230
368.158295	1360.985840	9845.670898	3702.329834	27.594942
368.525543	1359.157593	9765.295898	3676.950195	27.572618
368.892700	1357.910156	9695.201172	3657.937256	27.587223
369.259827	1353.995728	9637.989258	3639.913330	27.594391
369.626953	1353.866699	9598.737305	3625.481445	27.551853
369.994019	1351.758911	9565.443359	3611.135986	27.507471
370.361053	1352.275146	9548.214844	3600.080566	27.425842
370.728027	1352.189087	9533.718750	3592.832275	27.386602
371.094971	1351.780396	9534.988281	3594.209229	27.402807
371.461914	1352.769775	9558.130859	3600.166504	27.389370
371.828796	1351.737427	9594.414063	3608.898682	27.383837
372.195618	1350.339355	9626.719727	3623.438232	27.464890
372.562408	1351.974121	9658.831055	3632.879883	27.458107
372.929199	1351.586792	9693.179688	3643.806396	27.479401
373.295898	1355.501343	9733.291992	3653.528076	27.429985
373.662598	1356.060547	9780.587891	3668.497803	27.448866
374.029236	1356.576660	9817.689453	3680.929443	27.471004
374.395844	1356.877808	9856.899414	3694.973633	27.506939
374.762421	1355.823853	9897.225586	3708.545898	27.544920
375.128967	1357.114380	9936.629883	3716.912354	27.505024
375.495483	1354.533447	9986.249023	3732.505615	27.549240
375.861908	1355.931519	10070.731445	3755.691406	27.536602
376.228333	1357.974731	10203.887695	3792.254883	27.518700
376.594727	1358.942505	10389.137695	3845.358398	27.534466
376.961090	1361.545044	10614.305664	3906.742188	27.507437
377.327393	1363.480713	10855.839844	3974.793701	27.509630
377.693665	1365.072388	11066.941406	4033.187500	27.501043
378.059906	1364.427246	11233.047852	4079.343750	27.510595
378.426086	1365.932739	11330.974609	4108.400879	27.520889
378.792267	1369.825684	11394.444336	4130.317871	27.537128
379.158386	1371.030151	11416.447266	4140.792480	27.572397
379.524445	1369.976318	11407.844727	4135.673340	27.552633
379.890503	1369.309448	11373.172852	4129.134766	27.587595
380.256531	1369.072998	11302.153320	4107.175293	27.565491
380.622467	1364.900513	11182.784180	4072.525879	27.578505
380.988403	1360.878418	11019.000977	4029.144531	27.627171
381.354279	1356.146606	10836.203125	3979.977295	27.677372
381.720154	1352.726807	10673.344727	3932.680664	27.680073
382.085968	1351.909424	10543.047852	3899.128662	27.713860
382.451752	1349.995239	10486.180664	3878.437500	27.675034
382.817474	1345.026855	10469.597656	3866.328369	27.632002
383.183197	1343.693359	10503.063477	3873.125000	27.615782
383.548859	1345.500000	10561.652344	3891.213135	27.622299
383.914490	1344.467651	10627.725586	3906.871094	27.602415
384.280060	1345.672119	10690.206055	3928.164063	27.636391
384.645599	1349.844727	10754.623047	3944.660400	27.590397
385.011108	1351.522339	10825.126953	3964.426758	27.580889
385.376617	1353.823730	10908.878906	3982.644287	27.512356
385.742035	1354.684082	11003.621094	4005.098633	27.468460
386.107452	1356.727417	11107.333984	4029.940430	27.415863
386.472778	1357.028442	11198.656250	4059.406250	27.458647
386.838135	1359.932007	11293.549805	4095.303223	27.536503
387.203430	1361.437622	11367.687500	4117.306152	27.541473
387.568634	1361.286987	11435.739258	4136.189941	27.543957
387.933838	1362.233276	11474.819336	4146.857910	27.536226
388.299042	1361.329956	11511.188477	4156.730469	27.541275
388.664124	1358.791992	11539.451172	4164.215332	27.556402
389.029236	1358.705933	11556.485352	4168.129883	27.549368
389.394318	1358.598511	11564.163086	4173.700684	27.583992
389.759308	1359.050049	11561.776367	4173.549805	27.585760
390.124298	1359.931885	11585.113281	4183.292480	27.611837
390.489227	1360.405151	11632.730469	4196.262207	27.606768
390.854126	1363.179688	11712.761719	4214.027832	27.545538
391.218964	1363.287231	11838.283203	4251.215332	27.569731
391.583771	1363.588379	11981.677734	4294.102051	27.599255
391.948578	1364.190552	12133.137695	4337.548828	27.610483
392.313354	1365.201538	12250.250000	4372.369629	27.626591
392.678040	1366.061890	12350.002930	4401.986328	27.639662
393.042694	1366.363037	12448.102539	4432.119141	27.664936
393.407349	1366.793091	12559.469727	4465.650391	27.686474
393.771942	1366.276855	12693.099609	4507.268555	27.730564
394.136505	1365.739136	12809.715820	4539.810059	27.735733
394.501007	1365.158325	12885.081055	4562.006348	27.750605
394.865479	1362.362427	12878.089844	4562.221191	27.786858
395.229919	1360.469604	12786.056641	4530.582520	27.745733
395.594360	1360.104004	12648.211914	4489.739258	27.725067
395.958710	1358.168213	12487.438477	4445.432617	27.740044
396.323029	1359.523315	12344.819336	4402.438477	27.699892
396.687286	1358.146729	12222.093750	4368.928711	27.713518
397.051544	1360.039551	12111.457031	4337.784668	27.696301
397.415771	1359.179199	11980.452148	4296.187988	27.652134
397.779938	1358.318726	11827.401367	4254.720703	27.666243
398.144043	1355.673340	11671.833984	4208.908691	27.657921
398.508148	1356.469116	11518.610352	4167.677734	27.663544
398.872192	1356.189575	11394.616211	4133.458496	27.666378
399.236237	1355.350830	11314.026367	4112.187012	27.682758
399.600189	1356.189575	11257.115234	4090.292236	27.614614
399.964111	1356.856323	11216.551758	4076.483643	27.583281
400.328003	1354.425903	11190.957031	4071.106445	27.618279
400.691925	1356.275635	11172.675781	4070.182129	27.646656
401.055695	1353.866699	11166.674805	4066.869629	27.647568
401.419495	1353.544067	11164.954102	4068.977539	27.676283
401.783234	1353.888184	11182.396484	4071.192383	27.647169
402.146942	1355.823853	11181.772461	4076.634277	27.690056
402.510620	1354.533325	11216.336914	4085.237305	27.689703
402.874237	1354.339844	11263.202148	4097.647949	27.685400
403.237823	1355.866943	11339.016602	4117.929688	27.667248
403.601379	1355.888428	11444.148438	4152.041504	27.716902
403.964874	1355.372192	11595.048828	4196.562988	27.746881
404.328369	1356.146484	11759.886719	4240.676270	27.725891
404.691772	1357.630615	11933.800781	4287.176270	27.699495
405.055176	1357.501465	12084.485352	4329.525879	27.706057
405.418549	1358.426392	12229.471680	4373.703613	27.736776
405.781860	1359.200684	12337.485352	4408.374512	27.774591
406.145142	1360.426636	12448.811523	4435.797363	27.735064
406.508362	1362.254761	12518.819336	4451.412109	27.689144
406.871552	1361.136353	12561.362305	4462.424316	27.689514
407.234741	1361.867554	12562.030273	4468.790527	27.739979
407.597870	1360.792236	12520.647461	4458.896484	27.761150
407.960938	1362.340820	12456.339844	4442.636719	27.765425
408.323975	1362.663574	12370.886719	4421.945801	27.790882
408.686981	1360.727783	12293.264648	4397.728027	27.779465
409.049957	1361.416016	12241.559570	4383.812012	27.779009
409.412903	1363.007690	12215.985352	4375.531250	27.757576
409.775787	1364.405762	12229.450195	4377.939941	27.736050
410.138611	1363.459351	12273.197266	4390.005859	27.741695
410.501434	1364.298218	12328.452148	4411.191895	27.789591
410.864227	1366.771606	12373.488281	4427.946289	27.811880
411.226929	1367.717896	12423.409180	4441.732910	27.804821
411.589630	1369.524536	12473.394531	4456.530762	27.801174
411.952271	1370.793457	12497.547852	4466.251953	27.819960
412.314911	1371.116089	12522.303711	4472.747559	27.814360
412.677490	1370.599976	12536.693359	4480.404297	27.850422
413.040009	1373.675659	12560.458984	4486.663574	27.827372
413.402496	1372.557129	12553.318359	4487.975098	27.864094
413.764984	1368.427612	12534.865234	4485.953613	27.918715
414.127380	1367.889893	12502.602539	4480.942383	27.958084
414.489777	1366.900635	12490.407227	4475.328613	27.944675
414.852112	1367.459839	12512.194336	4481.587891	27.942595
415.214386	1366.276855	12548.994141	4493.589355	27.965588
415.576660	1366.018799	12629.650391	4519.419922	27.996309
415.938904	1364.233643	12746.977539	4550.800293	27.994715
416.301086	1366.900635	12896.694336	4595.429199	28.001616
416.663208	1370.793579	13069.619141	4643.112793	27.971350
417.025299	1371.159180	13253.083984	4694.624512	27.970766
417.387390	1373.374512	13469.753906	4756.891113	27.971317
417.749420	1380.472168	13732.582031	4828.318848	27.913019
418.111389	1384.580200	14027.824219	4918.007324	27.947157
418.473328	1387.720337	14356.853516	5017.051270	27.984377
418.835266	1391.333740	14718.684570	5121.773926	27.990862
419.197144	1397.441895	15121.508789	5237.938965	27.983667
419.558960	1401.292114	15548.528320	5365.395996	28.020342
419.920746	1408.045532	16017.491211	5509.736328	28.075611
420.282471	1412.325562	16561.236328	5666.099609	28.079733
420.644226	1418.304810	17156.554688	5840.809570	28.100359
421.005920	1422.219238	17755.876953	6021.906738	28.160791
421.367523	1427.273682	18320.054688	6193.950195	28.217241
421.729126	1429.531860	18822.029297	6349.603516	28.288471
422.090668	1432.177490	19260.212891	6480.823730	28.318581
422.452179	1434.156128	19616.773438	6594.042480	28.378128
422.813660	1435.876831	19942.878906	6693.539063	28.409042
423.175110	1438.242676	20241.583984	6787.421387	28.448021
423.536469	1438.930908	20520.156250	6875.797363	28.493277
423.897858	1439.425659	20782.404297	6953.829590	28.508556
424.259155	1439.124512	20923.882813	7005.319824	28.566921
424.620453	1437.791016	20975.201172	7024.698242	28.595945
424.981689	1438.092163	20959.500000	7024.999512	28.619387
425.342865	1438.715942	20913.107422	7015.213867	28.635033
425.704041	1441.017334	20834.367188	6994.199707	28.634468
426.065186	1441.318359	20749.023438	6968.153320	28.625023
426.426239	1441.447388	20644.773438	6934.665527	28.605556
426.787262	1439.941895	20466.019531	6887.046875	28.629679
427.148254	1437.102783	20225.689453	6820.437012	28.652151
427.509216	1434.994995	19907.519531	6729.005859	28.658836
427.870178	1432.973145	19504.158203	6613.894043	28.669514
428.231049	1430.155762	19086.945313	6497.257324	28.697752
428.591858	1426.585327	18670.699219	6389.737793	28.781719
428.952698	1421.509399	18269.832031	6280.304688	28.838453
429.313446	1416.842163	17885.699219	6170.506348	28.864565
429.674164	1412.239380	17541.742188	6070.322266	28.879272
430.034851	1408.862793	17206.625000	5981.537109	28.945078
430.395477	1408.174561	16918.267578	5905.248047	28.994495
430.756104	1406.539917	16688.412109	5845.132813	29.044823
431.116699	1404.991333	16488.386719	5792.976074	29.091492
431.477203	1406.174316	16316.538086	5749.615234	29.130350
431.837646	1405.937744	16210.290039	5723.934570	29.167078
432.198090	1405.442993	16155.550781	5705.330078	29.151566
432.558502	1405.980713	16141.225586	5702.512695	29.158199
432.918884	1408.196045	16152.410156	5708.427734	29.165552
433.279205	1407.335693	16212.224609	5728.279785	29.185928
433.639465	1406.496948	16264.639648	5754.627441	29.264294
433.999756	1405.593628	16348.177734	5779.727051	29.272938
434.359924	1404.410645	16430.123047	5812.140137	29.334578
434.720093	1404.518188	16499.076172	5839.670410	29.382460
435.080200	1403.464355	16569.537109	5864.297363	29.413239
435.440277	1401.679077	16644.814453	5890.708984	29.449516
435.800354	1398.495972	16696.929688	5914.044922	29.516413
436.160370	1396.302124	16723.988281	5932.433594	29.594364
436.520325	1393.333984	16741.214844	5945.726074	29.661373
436.880249	1391.785278	16744.398438	5953.017090	29.709808
437.240112	1393.635010	16742.140625	5958.996582	29.744663
437.599976	1393.355347	16763.734375	5977.062988	29.821695
437.959808	1397.248413	16810.578125	6004.937500	29.894182
438.319519	1396.538574	16871.531250	6029.800293	29.940317
438.679260	1397.011841	16968.898438	6065.504395	29.980263
439.038940	1398.001221	17101.580078	6119.747070	30.067961
439.398590	1401.313354	17284.636719	6183.798340	30.110102
439.758179	1403.593384	17510.082031	6264.948242	30.182589
440.117767	1407.679810	17808.658203	6364.659668	30.223684
440.477295	1412.691284	18135.470703	6475.125000	30.272680
440.836792	1416.992798	18487.625000	6593.957520	30.326731
441.196198	1416.627075	18806.761719	6704.745117	30.408724
441.555603	1421.165405	19081.398438	6797.379883	30.442490
441.914978	1420.154419	19270.431641	6866.313965	30.510225
442.274323	1422.004272	19408.857422	6922.406250	30.580122
442.633575	1425.854004	19502.654297	6970.068359	30.670330
442.992859	1430.349365	19538.033203	6986.543457	30.684181
443.352051	1429.618042	19510.417969	6987.123535	30.737053
443.711182	1431.231201	19432.322266	6972.670410	30.783907
444.070313	1430.263306	19310.414063	6945.419922	30.845137
444.429382	1427.660767	19152.394531	6906.232422	30.909189
444.788452	1426.649902	19016.162109	6878.335938	30.993959
445.147430	1428.886719	18932.904297	6866.140625	31.062891
445.506409	1427.617676	18915.289063	6873.711426	31.142475
445.865295	1427.380981	18997.214844	6910.253418	31.206171
446.224182	1430.048096	19166.203125	6981.768555	31.301716
446.583038	1428.607056	19404.511719	7063.822266	31.348717
446.941833	1427.725220	19672.609375	7164.953125	31.445681
447.300598	1428.564087	19946.794922	7267.137695	31.528788
447.659302	1429.467529	20195.962891	7359.384766	31.598423
448.018005	1432.112915	20390.330078	7444.449707	31.713621
448.376648	1434.435913	20546.457031	7513.576660	31.807941
448.735229	1433.812256	20616.380859	7552.915527	31.899292
449.093781	1430.155762	20626.341797	7573.862793	32.004833
449.452301	1426.327271	20563.126953	7569.130859	32.099430
449.810791	1426.456299	20426.488281	7543.987793	32.197479
450.169220	1422.499023	20185.425781	7477.227051	32.269638
450.527618	1420.004028	19889.474609	7401.455078	32.385612
450.885956	1415.831421	19574.554688	7320.068848	32.514606
451.244263	1413.293457	19276.238281	7244.532715	32.644333
451.602539	1410.927612	19023.753906	7181.298340	32.762321
451.960785	1408.432617	18834.052734	7126.194824	32.812386
452.318970	1408.174561	18676.830078	7096.642578	32.940998
452.677124	1405.507568	18535.242188	7070.252930	33.069660
453.035248	1404.324585	18393.332031	7041.990723	33.184196
453.393311	1406.131226	18235.076172	7011.557617	33.308243
453.751312	1404.216919	18067.550781	6973.015137	33.419472
454.109314	1406.432251	17921.660156	6943.419922	33.526558
454.467285	1404.862183	17778.740234	6912.728027	33.638126
454.825195	1404.432129	17644.810547	6878.959473	33.709358
455.183044	1402.474854	17489.566406	6839.750488	33.798996
455.540894	1400.797363	17304.662109	6795.100098	33.918186
455.898651	1399.248535	17107.042969	6759.977051	34.127823
456.256378	1395.871948	16915.341797	6699.281738	34.172623
456.614105	1394.301758	16754.355469	6661.405762	34.290920
456.971771	1392.602661	16626.273438	6632.348633	34.395821
457.329407	1389.247437	16578.355469	6636.284180	34.544731
457.686981	1388.881836	16595.927734	6662.523926	34.678940
458.044525	1384.881348	16716.048828	6723.585449	34.822552
458.402008	1386.731079	16913.148438	6810.800293	34.934456
458.759460	1390.258301	17222.691406	6947.398438	35.099720
459.116913	1395.850464	17682.341797	7133.895020	35.231926
459.474274	1400.883301	18285.017578	7372.138672	35.366074
459.831635	1406.840942	18900.771484	7614.534180	35.484840
460.188904	1411.508301	19491.898438	7857.423828	35.651417
460.546173	1418.562866	19993.939453	8060.546875	35.756927
460.903381	1425.251831	20382.978516	8231.084961	35.900047
461.260559	1430.177246	20662.236328	8355.982422	36.011772
461.617706	1433.424927	20856.863281	8450.638672	36.127560
461.974762	1433.037842	20902.890625	8492.213867	36.256954
462.331848	1433.016357	20853.939453	8500.923828	36.393261
462.688843	1426.671509	20652.968750	8460.337891	36.583572
463.045837	1421.208374	20278.253906	8359.035156	36.791695
463.402740	1416.068115	19744.960938	8192.800781	36.972950
463.759613	1410.131836	19186.871094	8010.153320	37.127293
464.116486	1404.905396	18641.621094	7838.261230	37.323563
464.473267	1399.055176	18194.984375	7702.373535	37.528843
464.830048	1397.205444	17837.132813	7598.919922	37.723488
465.186737	1396.474243	17553.250000	7528.804199	37.955162
465.543457	1391.742432	17325.523438	7476.776367	38.189518
465.900085	1392.796265	17206.626953	7466.215820	38.405743
466.256683	1391.161621	17162.019531	7488.003418	38.658913
466.613251	1393.592041	17192.710938	7524.416016	38.804848
466.969757	1393.721069	17282.013672	7586.015625	38.973946
467.326233	1393.893066	17380.392578	7656.174805	39.172314
467.682678	1394.430908	17445.085938	7719.623047	39.407688
468.039093	1393.979248	17487.242188	7775.823242	39.655376
468.395416	1392.366089	17481.046875	7808.580078	39.880299
468.751740	1390.365723	17475.798828	7838.196777	40.084908
469.108032	1387.333130	17453.904297	7860.436035	40.289261
469.464233	1386.924561	17425.257813	7883.470703	40.506367
469.820435	1387.462158	17371.595703	7898.053223	40.731583
470.176575	1388.903198	17264.826172	7887.384766	40.932938
470.532715	1390.709839	17116.185547	7873.578125	41.225262
470.888763	1389.871094	16959.392578	7847.745605	41.477669
471.244751	1389.957153	16821.849609	7832.604492	41.748913
471.600769	1388.838745	16735.945313	7839.099609	42.029167
471.956696	1391.419800	16686.154297	7855.531738	42.263641
472.312592	1395.119141	16715.039063	7916.271484	42.566490
472.668457	1394.172852	16788.876953	7993.979492	42.870628
473.024292	1395.613892	16909.494141	8088.701660	43.142578
473.380035	1399.872437	16996.687500	8180.626953	43.475250
473.735779	1402.711548	17086.396484	8270.336914	43.788342
474.091492	1400.130615	17172.923828	8362.735352	44.143131
474.447113	1398.689453	17280.419922	8455.994141	44.436623
474.802765	1400.238159	17379.853516	8556.888672	44.786125
475.158295	1401.227417	17497.501953	8667.545898	45.142857
475.513824	1401.205811	17608.527344	8776.485352	45.505852
475.869324	1400.495972	17745.513672	8899.016602	45.876492
476.224762	1399.420532	17873.398438	9021.892578	46.269772
476.580170	1401.743408	17999.607422	9146.917969	46.663685
476.935516	1402.668335	18130.783203	9267.449219	47.015343
477.290863	1401.721924	18340.294922	9420.930664	47.342888
477.646118	1399.807739	18551.289063	9588.478516	47.743229
478.001373	1403.163208	18806.695313	9780.545898	48.136108
478.356537	1404.561279	19087.570313	9984.915039	48.523151
478.711700	1408.927368	19371.455078	10198.167969	48.930977
479.066833	1412.863281	19646.175781	10401.074219	49.295547
479.421875	1416.003418	19939.740234	10616.606445	49.669266
479.776917	1418.713501	20251.736328	10850.871094	50.083076
480.131897	1422.756958	20583.023438	11091.331055	50.461586
480.486847	1425.187378	20960.789063	11359.150391	50.850559
480.841766	1427.617798	21395.488281	11670.952148	51.299080
481.196594	1431.403198	21904.089844	12025.985352	51.749836
481.551453	1438.608521	22567.785156	12447.843750	52.104424
481.906219	1446.028809	23387.111328	12974.512695	52.542915
482.260986	1455.320190	24480.345703	13659.542969	53.004166
482.615662	1465.364380	26038.882813	14600.949219	53.454231
482.970306	1480.312500	28242.232422	15955.697266	54.089485
483.324951	1502.057129	31073.486328	17782.869141	55.055885
483.679504	1528.103394	34178.042969	19918.144531	56.324886
484.034027	1552.192261	37240.316406	22050.150391	57.436356
484.388519	1577.485840	40007.261719	23930.601563	58.166134
484.742981	1599.682007	42335.035156	25459.800781	58.573494
485.097351	1615.727051	44198.640625	26683.867188	58.869011
485.451721	1625.018677	45581.304688	27637.917969	59.179020
485.806030	1633.750732	46583.941406	28345.556641	59.425346
486.160309	1640.482788	47246.304688	28883.082031	59.734917
486.514557	1645.494263	47545.160156	29242.460938	60.124550
486.868744	1646.569580	47432.246094	29346.193359	60.498447
487.222931	1643.171387	46820.234375	29078.074219	60.727505
487.577026	1636.890991	45926.082031	28526.632813	60.714005
487.931122	1628.933105	44990.953125	27931.224609	60.657440
488.285126	1619.964111	44104.308594	27432.154297	60.756947
488.639099	1612.952637	43301.371094	27060.363281	61.041920
488.993042	1607.553955	42603.714844	26782.951172	61.409157
489.346954	1604.542969	42024.195313	26567.419922	61.759258
489.700836	1601.617676	41487.574219	26400.775391	62.175163
490.054626	1597.423828	40928.410156	26202.042969	62.557854
490.408417	1590.670044	40378.378906	25987.800781	62.899132
490.762146	1584.217896	39816.289063	25786.269531	63.303009
491.115814	1583.056274	39386.949219	25680.923828	63.744404
491.469513	1578.711670	39061.570313	25616.742188	64.130730
491.823090	1576.281250	38661.800781	25516.625000	64.554428
492.176666	1572.173340	38210.628906	25371.292969	64.956665
492.530182	1567.678101	37734.078125	25212.132813	65.376862
492.883698	1562.967896	37229.519531	25016.001953	65.756378
493.237091	1558.687622	36680.738281	24793.869141	66.155540
493.590515	1550.321045	36093.078125	24505.123047	66.453300
493.943878	1543.266479	35411.636719	24155.898438	66.766228
494.297150	1537.846558	34507.351563	23663.794922	67.110352
494.650452	1529.049683	33330.281250	22977.515625	67.445396
495.003662	1512.875488	31807.943359	22036.537109	67.745888
495.356873	1500.314941	30131.712891	21000.730469	68.108498
495.710022	1487.066040	28584.187500	20036.695313	68.456085
496.063110	1476.828247	27306.437500	19272.816406	68.897629
496.416168	1468.074341	26367.935547	18728.255859	69.318382
496.769165	1463.084473	25714.408203	18377.611328	69.746819
497.122162	1457.449463	25311.005859	18179.736328	70.103958
497.475098	1456.632202	25029.080078	18085.166016	70.542244
497.828003	1456.223511	24893.019531	18080.585938	70.932747
498.180847	1454.029785	24823.205078	18117.814453	71.306686
498.533661	1454.416870	24769.218750	18157.820313	71.642914
498.886444	1453.621094	24713.750000	18199.007813	71.991806
499.239136	1451.964966	24632.236328	18221.226563	72.342819
499.591827	1449.900269	24482.648438	18189.416016	72.677025
499.944427	1449.039795	24238.423828	18074.693359	72.953499
500.297089	1446.007202	23928.687500	17911.554688	73.236588
500.649628	1444.630615	23578.921875	17716.755859	73.515457
501.002136	1440.371948	23203.154297	17515.074219	73.863266
501.354584	1437.532837	22852.552734	17332.041016	74.221306
501.707001	1434.156250	22491.947266	17134.552734	74.558609
502.059387	1432.005371	22181.478516	16963.951172	74.854652
502.411682	1429.747070	21899.015625	16822.966797	75.201607
502.764038	1429.531982	21673.394531	16715.189453	75.507607
503.116302	1429.575073	21490.425781	16634.599609	75.794510
503.468475	1428.370605	21362.968750	16603.304688	76.123604
503.820709	1427.445679	21297.326172	16626.318359	76.492020
504.172852	1427.768433	21260.976563	16651.675781	76.759674
504.524902	1425.101440	21239.255859	16702.394531	77.102928
504.876953	1428.177124	21248.654297	16751.236328	77.309242
505.228912	1427.918945	21261.386719	16806.513672	77.538605
505.580872	1427.553345	21280.679688	16864.476563	77.755623
505.932770	1426.391968	21267.861328	16906.158203	78.017242
506.284698	1425.209106	21266.160156	16922.398438	78.107086
506.636505	1425.660645	21272.806641	16962.748047	78.283737
506.988342	1423.789551	21269.794922	17000.642578	78.488609
507.340088	1424.671387	21276.398438	17030.300781	78.610939
507.691772	1424.456177	21279.777344	17062.304688	78.758987
508.043396	1423.681763	21298.380859	17122.896484	78.990959
508.395050	1425.337769	21345.074219	17194.345703	79.162735
508.746582	1426.262695	21429.212891	17288.916016	79.301575
509.098114	1426.929565	21563.166016	17414.416016	79.396599
509.449646	1429.446045	21709.593750	17549.445313	79.486595
509.801086	1431.080688	21892.970703	17717.744141	79.595100
510.152557	1433.403442	22072.626953	17918.951172	79.874847
510.503906	1433.640137	22255.166016	18088.175781	79.987106
510.855194	1437.210449	22443.490234	18257.121094	80.070869
511.206482	1438.801880	22627.857422	18429.033203	80.183998
511.557709	1440.243042	22821.171875	18611.142578	80.309418
511.908844	1445.340332	23011.128906	18788.779297	80.421074
512.260010	1446.136230	23173.730469	18940.216797	80.515495
512.611206	1446.588013	23288.087891	19072.642578	80.699837
512.962219	1449.663574	23368.722656	19153.513672	80.769203
513.313232	1450.394897	23425.783203	19231.416016	80.913345
513.664246	1450.932617	23455.679688	19268.710938	80.972427
514.015137	1450.760620	23457.228516	19274.152344	80.991608
514.366028	1453.728638	23439.097656	19292.476563	81.139175
514.716919	1452.115356	23387.007813	19271.570313	81.237938
515.067688	1450.416138	23307.533203	19225.371094	81.323418
515.418396	1449.555786	23222.382813	19168.976563	81.383186
515.769104	1448.136353	23144.609375	19123.789063	81.467865
516.119812	1450.093506	23090.453125	19085.419922	81.492760
516.470459	1450.050537	23097.982422	19113.164063	81.592613
516.821106	1450.824829	23162.376953	19202.013672	81.759186
517.171631	1453.126221	23358.894531	19369.132813	81.786705
517.522095	1457.212769	23642.285156	19622.949219	81.882698
517.872559	1461.062622	24070.144531	19991.767578	81.961334
518.222961	1464.977173	24575.886719	20404.873047	81.952187
518.573364	1469.493896	25124.449219	20863.531250	81.987206
518.923645	1476.312012	25645.048828	21300.445313	82.023872
519.273987	1481.818115	26105.107422	21682.986328	82.040901
519.624207	1483.925903	26452.355469	21977.044922	82.076126
519.974487	1483.646362	26733.636719	22213.570313	82.098740
520.324646	1484.850708	26895.742188	22333.972656	82.047974
520.674744	1483.000977	26977.429688	22393.570313	82.020157
521.024780	1481.710449	26911.783203	22346.146484	82.046310
521.374878	1480.419922	26728.537109	22195.933594	82.047760
521.724792	1477.086060	26432.779297	21942.611328	82.007439
522.074707	1472.505005	26056.068359	21637.304688	82.025536
522.424744	1468.870117	25661.351563	21303.242188	81.985687
522.774536	1464.095459	25332.281250	21033.939453	81.991333
523.124329	1462.159668	25042.888672	20800.146484	82.007584
523.474182	1458.589478	24903.343750	20671.615234	81.950211
523.823914	1461.815674	24869.898438	20642.320313	81.939667
524.173523	1463.321167	24982.623047	20737.859375	81.952003
524.523132	1467.084961	25229.251953	20942.378906	81.959244
524.872803	1469.020630	25632.398438	21275.064453	81.967201
525.222290	1474.118042	26245.767578	21785.623047	81.994965
525.571777	1480.118896	26965.470703	22379.759766	82.006485
525.921326	1488.958740	27765.914063	23048.187500	82.046143
526.270752	1495.389526	28603.373047	23746.767578	82.084229
526.620178	1505.949951	29496.150391	24483.826172	82.092575
526.969482	1513.800415	30569.894531	25364.562500	82.085228
527.318787	1527.286011	31845.470703	26425.318359	82.122437
527.668030	1539.803589	33489.312500	27825.492188	82.272591
528.017212	1559.289917	35522.765625	29584.482422	82.515678
528.366394	1579.442871	37770.765625	31586.044922	82.911034
528.715515	1603.768677	39934.906250	33538.500000	83.312767
529.064636	1620.781616	41741.433594	35129.449219	83.519745
529.413635	1635.256348	43115.664063	36319.164063	83.615158
529.762695	1642.827271	44061.628906	37112.464844	83.617729
530.111633	1649.752686	44697.285156	37643.546875	83.614067
530.460510	1649.731201	44978.562500	37878.933594	83.614540
530.809387	1647.408325	44862.527344	37785.890625	83.624626
531.158142	1642.504639	44333.128906	37343.683594	83.627678
531.506958	1635.901611	43292.691406	36451.640625	83.577583
531.855652	1623.814087	41803.566406	35150.722656	83.442299
532.204407	1609.554199	40108.777344	33619.046875	83.143219
532.552979	1591.637939	38622.894531	32224.031250	82.720367
532.901611	1580.238647	37507.550781	31203.414063	82.453079
533.250183	1573.549683	36804.671875	30570.755859	82.305664
533.598755	1566.581299	36351.496094	30181.417969	82.262199
533.947205	1563.010864	35978.953125	29860.710938	82.222649
534.295593	1561.505371	35663.878906	29597.474609	82.211189
534.643982	1561.634399	35411.527344	29391.343750	82.215057
534.992249	1567.914795	35183.628906	29205.767578	82.217064
535.340576	1561.526855	34984.875000	29052.912109	82.252037
535.688843	1556.752075	34779.281250	28873.212891	82.222710
536.037048	1552.041748	34511.781250	28634.687500	82.168877
536.385315	1550.880371	34046.386719	28242.361328	82.138992
536.733398	1545.288208	33382.691406	27694.033203	82.132156
537.081421	1536.878540	32527.445313	26996.119141	82.151581
537.429443	1531.695190	31672.181641	26281.363281	82.114365
537.777466	1528.555054	30902.644531	25655.460938	82.136696
538.125427	1524.640625	30244.908203	25130.298828	82.191635
538.473267	1519.865723	29722.843750	24697.404297	82.181175
538.821167	1509.907471	29287.111328	24356.005859	82.247650
539.169006	1508.853638	28941.242188	24067.154297	82.232361
539.516846	1508.401978	28654.732422	23846.437500	82.287498
539.864502	1509.240723	28495.763672	23711.582031	82.271957
540.212219	1507.928833	28504.111328	23728.875000	82.311440
540.559875	1511.520630	28838.193359	24015.298828	82.350960
540.907410	1519.500122	29597.880859	24649.269531	82.375725
541.254944	1530.125000	30617.769531	25511.486328	82.445183
541.602478	1536.168823	31697.882813	26409.851563	82.467735
541.949951	1542.857910	32720.099609	27250.363281	82.455994
542.297363	1549.718872	33602.207031	27991.919922	82.496559
542.644714	1555.117310	34395.015625	28646.470703	82.495239
542.992126	1562.107544	35014.703125	29149.244141	82.466362
543.339355	1564.710083	35429.875000	29489.113281	82.457603
543.686646	1564.580933	35497.582031	29558.306641	82.497055
544.033813	1562.494873	35207.761719	29330.406250	82.531410
544.380920	1554.149536	34458.527344	28714.050781	82.541901
544.728027	1542.900757	33316.277344	27762.386719	82.520302
545.075134	1530.189575	31969.875000	26645.818359	82.509491
545.422180	1519.500000	30666.382813	25557.554688	82.472130
545.769165	1509.111694	29513.033203	24589.283203	82.417641
546.116150	1500.379395	28531.037109	23766.732422	82.374443
546.463013	1491.259888	27665.556641	23039.673828	82.326622
546.809875	1481.581543	26966.525391	22462.935547	82.328430
547.156677	1477.903564	26331.867188	21940.074219	82.329605
547.503418	1472.526611	25801.994141	21502.923828	82.329781
547.850098	1467.601318	25317.220703	21092.355469	82.285400
548.196777	1466.676270	24898.181641	20733.021484	82.224106
548.543396	1465.321411	24474.513672	20380.591797	82.207451
548.890015	1459.385132	24032.888672	20008.695313	82.172935
549.236633	1453.341309	23521.126953	19598.580078	82.225006
549.583069	1448.588013	22973.126953	19157.492188	82.273094
549.929504	1444.006836	22375.375000	18665.130859	82.274246
550.275879	1438.049072	21767.470703	18162.896484	82.269173
550.622253	1435.747925	21120.251953	17640.746094	82.323631
550.968567	1428.047974	20528.802734	17152.146484	82.321877
551.314819	1424.520630	20002.304688	16718.136719	82.322075
551.661072	1421.982788	19598.126953	16385.298828	82.323929
552.007263	1416.218628	19304.757813	16147.764648	82.351868
552.353394	1411.852417	19120.906250	15990.454102	82.322868
552.699524	1410.153442	19001.708984	15881.474609	82.262894
553.045593	1407.249756	18950.607422	15834.994141	82.240494
553.391602	1407.701294	18928.796875	15808.344727	82.190315
553.737549	1407.895020	18905.654297	15792.215820	82.206642
554.083435	1408.690796	18871.564453	15762.168945	82.194252
554.429321	1405.744263	18837.603516	15709.925781	82.057693
554.775146	1404.711792	18766.435547	15642.734375	82.008110
555.120972	1401.593018	18699.888672	15572.575195	81.921265
555.466675	1400.001465	18572.431641	15464.797852	81.903358
555.812439	1400.861816	18412.195313	15329.167969	81.876625
556.158081	1400.431641	18199.246094	15158.243164	81.897514
556.503662	1400.495972	17978.443359	14981.877930	81.924385
556.849182	1400.818848	17754.201172	14790.821289	81.879097
557.194702	1397.764648	17537.119141	14608.024414	81.851227
557.540161	1393.140381	17350.515625	14446.562500	81.801811
557.885620	1390.774414	17176.365234	14306.568359	81.820152
558.231018	1387.849243	17019.054688	14184.639648	81.866943
558.576355	1386.472778	16895.041016	14078.281250	81.837395
558.921692	1386.365356	16771.951172	13989.066406	81.912392
559.266968	1382.923950	16670.603516	13911.765625	81.953850
559.612183	1381.353882	16585.216797	13839.693359	81.941933
559.957336	1378.815918	16526.220703	13788.459961	81.925880
560.302429	1376.493164	16485.611328	13751.337891	81.903160
560.647522	1377.073975	16465.630859	13725.743164	81.841286
560.992554	1376.149170	16452.361328	13721.657227	81.887329
561.337524	1375.396362	16454.466797	13722.582031	81.882935
561.682434	1376.772827	16478.041016	13726.583984	81.779961
562.027344	1379.590332	16486.343750	13726.540039	81.731316
562.372253	1380.256958	16492.281250	13725.722656	81.693001
562.717102	1381.052856	16496.431641	13716.215820	81.606705
563.061829	1383.289551	16506.345703	13715.721680	81.547218
563.406494	1382.923950	16506.863281	13707.268555	81.488983
563.751160	1383.010132	16487.873047	13693.525391	81.500343
564.095825	1383.805908	16480.019531	13684.319336	81.480789
564.440369	1381.052856	16470.945313	13679.630859	81.502090
564.784973	1381.547485	16486.128906	13682.619141	81.439339
565.129456	1383.504761	16545.621094	13723.634766	81.387909
565.473877	1381.934692	16631.501953	13793.450195	81.389297
565.818298	1379.418335	16780.574219	13911.981445	81.374176
566.162659	1381.225098	16958.230469	14058.278320	81.383118
566.507019	1383.117676	17142.789063	14209.006836	81.384239
566.851196	1382.623047	17304.982422	14343.217773	81.398705
567.195435	1384.924316	17465.066406	14463.125000	81.331375
567.539612	1386.128784	17583.642578	14553.200195	81.290695
567.883789	1387.870972	17669.867188	14620.650391	81.272461
568.227844	1390.107666	17720.433594	14655.686523	81.232788
568.571960	1392.796143	17746.607422	14668.052734	81.175308
568.915955	1391.957397	17702.988281	14634.071289	81.185020
569.259888	1392.301514	17641.583984	14590.237305	81.221649
569.603821	1394.624390	17538.859375	14507.646484	81.224174
569.947632	1393.140259	17414.093750	14403.225586	81.206688
570.291504	1390.537842	17301.820313	14308.203125	81.185570
570.635193	1388.817261	17230.070313	14239.915039	81.124252
570.979004	1387.720337	17189.140625	14215.954102	81.184052
571.322632	1388.387207	17251.921875	14261.293945	81.147781
571.666321	1386.881348	17348.537109	14344.163086	81.177551
572.009949	1388.752686	17484.488281	14451.855469	81.158783
572.353455	1388.688110	17614.806641	14562.900391	81.191399
572.696960	1392.903809	17731.423828	14669.624023	81.260246
573.040405	1395.269653	17836.578125	14747.375977	81.210732
573.383850	1396.302246	17900.994141	14810.545898	81.275337
573.727173	1397.678589	17957.580078	14864.271484	81.320488
574.070557	1398.667969	17983.669922	14894.211914	81.371979
574.413879	1400.474731	18000.898438	14920.816406	81.445763
574.757019	1398.560425	18007.070313	14931.613281	81.482643
575.100281	1398.409912	17948.935547	14893.092773	81.536278
575.443420	1397.850586	17855.351563	14821.556641	81.565887
575.786499	1394.968628	17718.580078	14730.622070	81.695488
576.129517	1395.011597	17557.830078	14619.339844	81.819443
576.472534	1395.269653	17409.726563	14495.775391	81.804245
576.815491	1393.376953	17219.445313	14363.822266	81.956207
577.158447	1392.839355	17037.873047	14225.396484	82.023201
577.501343	1389.634644	16846.281250	14079.722656	82.101173
577.844116	1385.655518	16634.621094	13921.446289	82.207481
578.187012	1383.182129	16399.818359	13740.670898	82.291985
578.529724	1380.321533	16122.384766	13534.214844	82.443642
578.872375	1377.310425	15831.832031	13317.542969	82.605522
579.215027	1374.062622	15551.066406	13106.785156	82.758827
579.557617	1371.159058	15267.546875	12897.833984	82.947273
579.900146	1368.104980	15013.774414	12696.002930	83.014603
580.242676	1364.362549	14763.677734	12511.443359	83.191422
580.585144	1363.910889	14546.577148	12345.832031	83.305763
580.927612	1360.620117	14349.434570	12191.337891	83.384964
581.269958	1358.254272	14169.499023	12062.461914	83.553223
581.612305	1359.136108	14031.352539	11956.878906	83.629753
581.954590	1358.017700	13892.000977	11864.265625	83.822098
582.296814	1359.329712	13789.235352	11790.104492	83.916763
582.639038	1358.168335	13691.159180	11731.195313	84.107964
582.981140	1360.641724	13596.156250	11674.886719	84.297600
583.323242	1364.212036	13520.319336	11625.547852	84.413010
583.665283	1361.824707	13440.610352	11585.306641	84.639992
584.007324	1359.243652	13378.174805	11557.819336	84.854263
584.349304	1357.071411	13312.359375	11529.601563	85.088127
584.691284	1355.264771	13251.771484	11504.887695	85.315994
585.033142	1354.447388	13186.343750	11465.872070	85.459038
585.374939	1354.253906	13123.582031	11440.471680	85.699181
585.716736	1352.533203	13080.458984	11423.372070	85.870590
586.058411	1353.329102	13023.613281	11398.832031	86.077621
586.400085	1354.124878	12978.125000	11378.936523	86.242355
586.741760	1351.285889	12935.324219	11362.181641	86.419739
587.083374	1348.253174	12922.503906	11364.053711	86.535194
587.424988	1348.167114	12903.749023	11367.150391	86.702545
587.766541	1346.360352	12895.706055	11373.709961	86.821800
588.107971	1346.166748	12910.008789	11399.778320	86.940063
588.449341	1346.747559	12925.581055	11435.159180	87.128052
588.790710	1346.941162	12962.487305	11493.102539	87.349846
589.132080	1345.693604	12993.931641	11550.207031	87.605637
589.473267	1348.984375	13041.616211	11607.375000	87.733803
589.814514	1347.392700	13090.913086	11668.133789	87.884560
590.155762	1346.424927	13151.329102	11734.874023	88.001129
590.496948	1348.704834	13191.547852	11792.192383	88.183960
590.838013	1348.102661	13204.711914	11830.412109	88.408997
591.179077	1349.005981	13229.359375	11870.825195	88.564865
591.520081	1350.704956	13229.360352	11893.925781	88.757698
591.861023	1352.339600	13208.475586	11890.398438	88.882744
592.201965	1351.930908	13188.343750	11886.096680	88.997955
592.542847	1353.264526	13146.706055	11862.674805	89.112328
592.883606	1353.716187	13099.450195	11832.305664	89.211876
593.224365	1352.468628	13047.250000	11809.979492	89.420319
593.565125	1352.511597	13016.602539	11804.280273	89.606369
593.905823	1353.823730	12999.008789	11804.730469	89.744438
594.246521	1353.350464	12995.803711	11815.678711	89.863602
594.587097	1354.942139	13030.777344	11852.500977	89.908417
594.927612	1354.017334	13055.768555	11889.042969	90.029480
595.268127	1354.985229	13121.110352	11967.139648	90.192429
595.608582	1350.597534	13227.984375	12072.377930	90.270531
595.948975	1350.877075	13347.805664	12202.628906	90.454414
596.289307	1352.597656	13530.000000	12390.287109	90.640755
596.629700	1353.845093	13753.403320	12605.217773	90.740112
596.969971	1355.157104	13974.957031	12819.438477	90.843605
597.310242	1355.028198	14161.775391	13003.975586	90.959457
597.650391	1355.286255	14280.758789	13125.130859	91.059296
597.990540	1353.350464	14364.662109	13204.130859	91.080597
598.330627	1354.425903	14370.918945	13233.316406	91.260300
598.670654	1356.727295	14358.681641	13235.509766	91.361511
599.010620	1355.845459	14279.640625	13166.383789	91.385994
599.350525	1358.834961	14147.237305	13060.413086	91.501488
599.690491	1358.985474	13981.238281	12910.244141	91.515030
600.030334	1356.426147	13756.113281	12706.261719	91.533241
600.370178	1354.576416	13481.950195	12460.274414	91.575455
600.710022	1352.210449	13190.322266	12200.866211	91.641785
601.049683	1351.221191	12926.418945	11955.589844	91.612862
601.389343	1349.005859	12712.930664	11768.233398	91.686874
601.728943	1349.220947	12547.619141	11630.496094	91.810234
602.068542	1346.145386	12447.219727	11529.471680	91.732803
602.408081	1343.714966	12407.515625	11494.047852	91.743637
602.747498	1347.392822	12457.952148	11546.055664	91.792526
603.087036	1349.758667	12558.715820	11642.023438	91.821785
603.426453	1349.027344	12710.046875	11790.149414	91.903038
603.765869	1350.661987	12902.652344	11971.075195	91.935783
604.105103	1350.833984	13132.744141	12197.662109	92.063408
604.444336	1352.103027	13408.628906	12455.371094	92.093430
604.783569	1354.791504	13683.350586	12721.577148	92.198814
605.122681	1358.039185	13923.790039	12952.292969	92.268692
605.461792	1360.362183	14122.050781	13147.693359	92.364983
605.800842	1361.910645	14273.315430	13301.606445	92.474022
606.139954	1362.641846	14346.141602	13375.550781	92.524429
606.478943	1359.931763	14330.636719	13375.571289	92.636749
606.817932	1356.813232	14249.227539	13313.413086	92.741356
607.156799	1358.340332	14120.008789	13196.840820	92.766090
607.495605	1357.071411	13942.028320	13034.066406	92.785339
607.834412	1356.512207	13730.906250	12827.030273	92.695587
608.173157	1356.963867	13487.928711	12607.281250	92.740501
608.511841	1357.523193	13275.150391	12410.268555	92.742836
608.850464	1356.813354	13123.109375	12270.616211	92.754784
609.189148	1357.222046	13038.905273	12184.110352	92.682602
609.527710	1357.178955	12987.802734	12146.386719	92.765511
609.866211	1356.619629	12966.853516	12137.631836	92.857834
610.204712	1356.576660	12970.832031	12141.827148	92.862167
610.543091	1358.921021	12985.652344	12165.206055	92.943451
610.881409	1359.200684	12981.887695	12170.043945	93.015007
611.219788	1358.555542	12962.636719	12164.152344	93.118935
611.558044	1359.222290	12924.590820	12150.150391	93.303795
611.896301	1357.071411	12848.300781	12078.937500	93.304779
612.234436	1355.092651	12720.778320	11966.837891	93.366524
612.572693	1350.468384	12538.434570	11804.516602	93.440109
612.910767	1346.295776	12311.265625	11596.125000	93.477951
613.248840	1345.951660	12067.795898	11365.730469	93.452019
613.586792	1344.962402	11823.615234	11138.370117	93.460571
613.924805	1343.112671	11590.983398	10916.793945	93.421173
614.262695	1339.284180	11367.793945	10705.434570	93.395233
614.600525	1335.563354	11181.536133	10525.519531	93.337212
614.938293	1333.627441	11017.816406	10376.727539	93.380035
615.276123	1329.906738	10869.152344	10239.699219	93.401436
615.613892	1329.584106	10751.783203	10132.869141	93.431320
615.951538	1328.035522	10640.694336	10032.448242	93.468613
616.289185	1328.014038	10566.943359	9955.148438	93.378075
616.626770	1327.411743	10496.353516	9888.667969	93.372345
616.964294	1326.013672	10445.938477	9842.919922	93.387901
617.301819	1323.604736	10407.267578	9806.312500	93.384224
617.639221	1323.153076	10378.189453	9783.469727	93.432167
617.976624	1321.325073	10362.853516	9761.510742	93.349106
618.313965	1324.164185	10346.486328	9748.950195	93.377136
618.651306	1327.497803	10337.819336	9736.282227	93.323914
618.988525	1329.605591	10326.570313	9719.613281	93.253761
619.325684	1329.433472	10320.224609	9708.020508	93.190765
619.662964	1331.111206	10312.611328	9704.126953	93.225136
620.000000	1331.605957	10289.296875	9688.232422	93.289963
620.337097	1329.842285	10270.563477	9676.639648	93.357094
620.674133	1327.670044	10244.667969	9653.411133	93.369331
621.011047	1330.035889	10211.373047	9627.580078	93.426743
621.347961	1329.648682	10182.379883	9598.330078	93.402603
621.684875	1331.390747	10146.871094	9570.584961	93.462791
622.021729	1329.863770	10114.371094	9545.248047	93.521286
622.358521	1329.132324	10068.881836	9507.737305	93.579391
622.695313	1327.325684	10045.352539	9487.024414	93.595703
623.031982	1326.551514	10015.541992	9466.915039	93.685951
623.368652	1324.529785	9991.561523	9440.266602	93.639175
623.705261	1323.712402	9977.149414	9438.136719	93.771111
624.041748	1326.443970	9965.019531	9421.274414	93.705620
624.378296	1330.057373	9964.589844	9420.586914	93.699684
624.714722	1329.777710	9987.903320	9426.264648	93.513153
625.051147	1331.756470	10010.014648	9443.406250	93.470947
625.387512	1333.520142	10059.138672	9487.368164	93.447227
625.723877	1334.358887	10114.349609	9541.009766	93.469925
626.060120	1332.380249	10206.467773	9621.383789	93.406830
626.396301	1335.004150	10316.202148	9716.708984	93.325020
626.732483	1338.079956	10427.527344	9824.399414	93.364525
627.068604	1340.488770	10542.659180	9930.175781	93.344154
627.404724	1345.156006	10649.726563	10022.015625	93.253738
627.740662	1346.575562	10744.706055	10114.199219	93.291145
628.076721	1345.392578	10811.510742	10173.819336	93.263435
628.412720	1344.360107	10847.579102	10213.480469	93.327538
628.748596	1344.058960	10864.636719	10226.321289	93.295410
629.084473	1344.790161	10857.860352	10212.920898	93.220490
629.420227	1344.058960	10822.523438	10178.186523	93.202095
629.755981	1344.381592	10759.699219	10115.727539	93.160385
630.091675	1345.285034	10655.600586	10026.855469	93.246788
630.427307	1343.714966	10541.219727	9911.141602	93.149467
630.762939	1340.768311	10419.979492	9797.213867	93.140755
631.098450	1338.208862	10297.727539	9679.522461	93.100021
631.434021	1338.208862	10185.499023	9572.498047	93.071312
631.769470	1335.197754	10085.313477	9479.152344	93.072540
632.104980	1333.240479	9990.163086	9397.530273	93.154236
632.440308	1331.627441	9907.851563	9322.101563	93.170067
632.775635	1330.315430	9827.433594	9255.233398	93.265953
633.110901	1330.401489	9767.102539	9201.375977	93.294456
633.446106	1330.788574	9724.925781	9163.780273	93.315033
633.781250	1328.100098	9693.135742	9130.980469	93.279709
634.116394	1329.304565	9672.036133	9118.850586	93.369255
634.451538	1330.186401	9660.164063	9103.299805	93.314934
634.786560	1329.261597	9636.849609	9083.921875	93.344307
635.121582	1326.723511	9609.641602	9060.391602	93.368881
635.456543	1329.820679	9574.928711	9040.086914	93.513214
635.791443	1334.122437	9539.719727	9006.383789	93.500336
636.126221	1333.455688	9498.402344	8976.940430	93.613403
636.461060	1330.294067	9459.751953	8935.688477	93.553528
636.795776	1328.336792	9411.875000	8883.660156	93.465546
637.130493	1327.261353	9340.318359	8814.296875	93.435448
637.465210	1329.089478	9269.083984	8740.803711	93.346588
637.799805	1327.562378	9190.750977	8656.987305	93.211868
638.134399	1325.196655	9101.235352	8577.686523	93.267151
638.468933	1324.400757	9013.999023	8497.246094	93.279846
638.803345	1324.099731	8930.870117	8418.011719	93.257866
639.137756	1322.357422	8856.818359	8338.925781	93.126350
639.472168	1320.937988	8790.487305	8275.283203	93.102608
639.806519	1319.582886	8721.060547	8210.889648	93.107178
640.140747	1319.797974	8648.619141	8150.773926	93.207024
640.474976	1320.142090	8578.417969	8087.948242	93.242615
640.809204	1321.066895	8510.150391	8035.167480	93.392998
641.143372	1321.023926	8444.959961	7978.795410	93.456360
641.477478	1320.658325	8379.188477	7927.907715	93.606590
641.811462	1321.798340	8318.385742	7870.997070	93.605614
642.145447	1322.206909	8273.305664	7821.765137	93.504044
642.479370	1321.647583	8229.859375	7779.759277	93.484566
642.813293	1321.346558	8179.572266	7732.506348	93.481316
643.147095	1318.873169	8133.115234	7689.490723	93.489746
643.480957	1319.862427	8095.455078	7648.797363	93.407845
643.814758	1322.593872	8059.644043	7609.287109	93.315224
644.148438	1322.809082	8031.532715	7582.573730	93.307831
644.482117	1322.593872	8010.153320	7550.612793	93.128426
644.815735	1320.400146	7981.741699	7523.727051	93.124290
645.149292	1319.002075	7963.890625	7503.747070	93.075226
645.482788	1318.636475	7946.726563	7493.036133	93.155037
645.816223	1318.098755	7929.542480	7479.507813	93.193092
646.149658	1321.884277	7921.261230	7474.754395	93.234108
646.483032	1322.830566	7925.670410	7478.325195	93.224960
646.816345	1325.002930	7925.347168	7478.281250	93.226624
647.149658	1325.712769	7925.153320	7482.023438	93.285339
647.482849	1323.067261	7931.089355	7488.433105	93.301231
647.816101	1323.690918	7933.498535	7482.841797	93.181999
648.149231	1325.583618	7934.251465	7487.852051	93.245247
648.482239	1325.562134	7940.402832	7496.283203	93.286011
648.815247	1325.282715	7940.918457	7496.219238	93.278061
649.148254	1326.250366	7943.090820	7493.767578	93.209396
649.481201	1326.723511	7939.155762	7494.691895	93.278358
649.814087	1323.475830	7926.875000	7487.357422	93.344070
650.146973	1323.949097	7914.399902	7476.216797	93.351242
650.479736	1322.873657	7914.377930	7471.507324	93.281189
650.812500	1323.820068	7909.216797	7467.979492	93.299759
651.145203	1324.185547	7898.226074	7459.204590	93.321892
651.477844	1325.045898	7892.375488	7460.000000	93.416267
651.810486	1322.529419	7888.052734	7455.698242	93.414772
652.143005	1322.421875	7879.083984	7440.750000	93.314674
652.475525	1322.830566	7875.061035	7431.695313	93.233360
652.807922	1321.389526	7863.532715	7426.490234	93.319580
653.140381	1321.131348	7854.090820	7414.272949	93.267708
653.472717	1322.206787	7835.443359	7392.528320	93.199768
653.805115	1322.744507	7811.312012	7371.708984	93.224960
654.137390	1323.303833	7778.468750	7339.512207	93.199921
654.469543	1322.292847	7743.497070	7306.884277	93.200455
654.801758	1323.992065	7706.976563	7275.568848	93.241287
655.133850	1322.938110	7666.024902	7244.123535	93.348640
655.465881	1323.798340	7628.988770	7209.883301	93.353012
655.797974	1326.874023	7598.726563	7188.116699	93.453133
656.129944	1328.723755	7561.474609	7159.704590	93.553886
656.461853	1331.111206	7537.429199	7134.195313	93.502846
656.793762	1330.465942	7519.620605	7113.590820	93.439659
657.125610	1329.476685	7518.437500	7114.129395	93.467270
657.457397	1330.100342	7528.761230	7119.376953	93.395592
657.789124	1327.884888	7549.730957	7144.110840	93.480713
658.120789	1325.863281	7595.220703	7182.847168	93.422394
658.452393	1325.712646	7671.316895	7252.145020	93.394295
658.783997	1325.906250	7765.521484	7337.984375	93.360825
659.115540	1325.024292	7877.062500	7443.609863	93.384460
659.447083	1322.099243	7988.430176	7551.000000	93.438217
659.778503	1323.475952	8102.724609	7660.175293	93.472000
660.109924	1322.895264	8201.403320	7751.842285	93.464272
660.441284	1327.067749	8284.660156	7825.443359	93.399773
660.772522	1329.347656	8343.678711	7879.041016	93.375877
661.103760	1328.401245	8376.391602	7911.151855	93.398972
661.434998	1329.067993	8385.361328	7915.195801	93.336937
661.766113	1332.659912	8352.733398	7890.978027	93.422363
662.097229	1332.573730	8281.864258	7827.098633	93.455940
662.428345	1334.746094	8188.197266	7735.366699	93.392662
662.759277	1336.638794	8055.599609	7609.823730	93.365402
663.090332	1339.757446	7920.400391	7475.270020	93.235764
663.421204	1336.617310	7777.931641	7336.651367	93.149223
663.752075	1336.230225	7635.720215	7200.247070	93.087158
664.082886	1333.584595	7499.488770	7085.458008	93.285156
664.413635	1332.401733	7379.345215	6975.036133	93.313828
664.744324	1331.347778	7271.783203	6872.271484	93.274704
665.075012	1333.627686	7177.986328	6786.066895	93.294067
665.405640	1333.477051	7108.106445	6714.122070	93.177322
665.736206	1333.971802	7047.948730	6655.211426	93.126724
666.066772	1332.638184	6992.845215	6604.387695	93.137047
666.397278	1331.175659	6956.948242	6565.307617	93.038460
666.727661	1328.895752	6917.653320	6540.466797	93.250977
667.058044	1331.648804	6889.562988	6514.011230	93.242935
667.388306	1331.068237	6871.109375	6498.525391	93.274704
667.718567	1330.874756	6853.817383	6474.049805	93.123817
668.048828	1331.842651	6843.343262	6465.511230	93.144661
668.378967	1334.186890	6841.342285	6468.672363	93.232986
668.709167	1333.907227	6841.601074	6465.617676	93.173485
669.039246	1334.165283	6841.170410	6465.403320	93.176567
669.369263	1335.434326	6843.127930	6465.403320	93.141876
669.699341	1336.638794	6839.643555	6464.220215	93.177849
670.029236	1335.993530	6832.223145	6459.337891	93.215614
670.359131	1335.735474	6828.630859	6444.067383	92.998894
670.688965	1335.993530	6818.565430	6432.646484	92.960983
671.018738	1338.402466	6799.423340	6418.945801	93.032852
671.348511	1339.563965	6785.142578	6409.697266	93.105499
671.678223	1340.617676	6766.085449	6390.620117	93.079575
672.007813	1339.284302	6734.426270	6364.853027	93.149887
672.337341	1339.714478	6704.465332	6339.796875	93.202507
672.666992	1340.596313	6671.987793	6305.727051	93.130112
672.996460	1339.822144	6636.758301	6276.992676	93.208046
673.325867	1340.768555	6604.001465	6248.322266	93.242195
673.655273	1343.693604	6570.578125	6217.694824	93.248680
673.984619	1346.166992	6531.841797	6186.013672	93.331085
674.314026	1346.769165	6501.708984	6161.322266	93.396881
674.643250	1347.457397	6475.360840	6134.158203	93.346153
674.972412	1348.102539	6445.852051	6104.928223	93.312271
675.301514	1346.123901	6418.300293	6074.687988	93.225548
675.630676	1348.425171	6399.007813	6045.136230	92.993446
675.959778	1348.726196	6375.133301	6024.509766	93.024368
676.288757	1346.769043	6355.583008	6008.766113	93.075867
676.617737	1347.994995	6330.139160	5983.365234	93.039665
676.946594	1345.564575	6317.104980	5961.642090	92.850044
677.275513	1346.769043	6303.340820	5952.888184	92.929535
677.604309	1348.296143	6301.619141	5947.446777	92.849792
677.933044	1348.339111	6297.081055	5945.705078	92.899689
678.261780	1347.371216	6302.092285	5949.017090	92.873962
678.590393	1346.725952	6318.115723	5961.039551	92.817375
678.919067	1347.736816	6339.990234	5983.063965	92.850395
679.247620	1350.597290	6369.906738	6016.444824	92.957954
679.576111	1354.576294	6414.687012	6060.041016	92.991341
679.904541	1357.888672	6464.951660	6107.251465	92.995972
680.232971	1360.211548	6527.389160	6163.537598	92.958405
680.561401	1367.094238	6579.482422	6223.179688	93.164307
680.889709	1368.986816	6631.660645	6272.798340	93.180992
681.217957	1370.320313	6676.612793	6321.944824	93.316086
681.546143	1373.030396	6715.370117	6359.862793	93.345474
681.874390	1376.299683	6754.256348	6388.941895	93.207191
682.202454	1380.837769	6781.851074	6413.095703	93.172478
682.530579	1384.322144	6789.357422	6420.408203	93.173973
682.858521	1385.376099	6781.614258	6412.966797	93.168434
683.186523	1385.913696	6746.879395	6376.747070	93.095787
683.514465	1386.193237	6701.539551	6331.902832	93.045860
683.842346	1388.881836	6645.490234	6283.595215	93.115425
684.170166	1386.279297	6579.826172	6214.103027	92.958122
684.497925	1386.472778	6514.226563	6150.310547	92.903015
684.825623	1385.655396	6446.218262	6076.730957	92.698692
685.153320	1384.773682	6370.703125	6006.571777	92.696808
685.481018	1383.354126	6294.414551	5944.263184	92.870148
685.808533	1384.106934	6218.426270	5880.362793	93.007011
686.136047	1385.784668	6154.891113	5822.076172	93.021439
686.463623	1386.774048	6099.916992	5774.436035	93.094185
686.791016	1387.526855	6063.267090	5739.012207	93.065163
687.118408	1389.634644	6037.909180	5717.654785	93.110252
687.445740	1388.042969	6019.132813	5697.867188	93.062851
687.772949	1389.613159	6015.045410	5696.490723	93.112976
688.100220	1391.161621	6012.099609	5696.103516	93.161644
688.427429	1396.474121	6003.087402	5695.630371	93.325745
688.754517	1399.270264	6008.249512	5692.038574	93.139244
689.081604	1402.259888	5999.280762	5684.359863	93.149460
689.408630	1401.657593	5991.171875	5673.605957	93.080620
689.735657	1402.023193	5971.492188	5659.367676	93.169357
690.062622	1401.377930	5948.737305	5635.601563	93.113899
690.389465	1403.141602	5917.722168	5611.103516	93.208260
690.716248	1404.238647	5876.018555	5574.926758	93.266846
691.043091	1406.045288	5826.141113	5529.523438	93.289337
691.369812	1407.744385	5769.511230	5477.517578	93.305618
691.696533	1407.658325	5708.041016	5420.606934	93.316078
692.023132	1403.399658	5655.582520	5369.439453	93.270683
692.349670	1401.700439	5592.693359	5316.658691	93.413612
692.676270	1403.227661	5541.073730	5266.244141	93.358147
693.002747	1403.378052	5492.959961	5216.883301	93.249268
693.329163	1403.313599	5450.717773	5173.996094	93.162987
693.655518	1405.593506	5407.400879	5137.475586	93.254913
693.981873	1404.389038	5364.772461	5098.760742	93.283180
694.308167	1406.260254	5326.423828	5065.423340	93.342102
694.634399	1406.195801	5301.151367	5034.495117	93.153809
694.960571	1406.604492	5276.309570	5007.007324	93.040756
695.286743	1409.400513	5256.242676	4990.296387	93.086632
695.612854	1414.239746	5242.563477	4972.874512	92.955429
695.938904	1418.713379	5237.853516	4967.884766	92.931168
696.264832	1420.197388	5241.918457	4967.217773	92.812119
696.590820	1425.208862	5250.500000	4976.767578	92.844139
696.916687	1428.047974	5274.652832	4996.919922	92.779793
697.242554	1430.822510	5313.324707	5030.128418	92.705833
697.568359	1435.919800	5373.332520	5080.328613	92.558464
697.894043	1442.802490	5455.772949	5150.745605	92.398964
698.219788	1451.663696	5556.581055	5249.123535	92.510017
698.545349	1459.578735	5674.015137	5362.771973	92.614830
698.870972	1470.827515	5799.234375	5479.646484	92.616501
699.196533	1477.903442	5917.076660	5601.919922	92.900551
699.521973	1484.678589	6021.197266	5697.501953	92.864677
699.847412	1493.948730	6108.326172	5781.382813	92.914680
700.172852	1502.121582	6172.678223	5839.390137	92.864059
700.498169	1510.208618	6207.930176	5873.738770	92.886093
700.823486	1514.832764	6215.135742	5876.835449	92.802597
701.148682	1517.456909	6188.142578	5852.058105	92.804390
701.473816	1518.682739	6122.328613	5793.255371	92.851898
701.799072	1518.897949	6019.906738	5698.061035	92.849480
702.124146	1515.607300	5893.568848	5581.809570	92.878891
702.449158	1510.832153	5747.744141	5444.137207	92.834244
702.774109	1510.466675	5599.274414	5296.333984	92.590981
703.099060	1508.014771	5460.439941	5167.909180	92.598701
703.424011	1501.906372	5323.562500	5041.549805	92.620667
703.748840	1494.937866	5198.386230	4928.546387	92.713821
704.073608	1492.292236	5088.071289	4823.931641	92.654175
704.398315	1489.216675	4990.511230	4740.265137	92.852753
704.723022	1488.506958	4912.694824	4662.427246	92.691185
705.047668	1487.194946	4849.225098	4597.300781	92.506783
705.372253	1486.958496	4791.949219	4541.207520	92.413239
705.696716	1489.560913	4742.028809	4492.535156	92.329094
706.021240	1486.377808	4705.701660	4456.423340	92.256813
706.345764	1486.076660	4678.321777	4429.301270	92.199203
706.670044	1489.023315	4652.834961	4406.137207	92.202515
706.994446	1493.626099	4636.037109	4388.629883	92.126831
707.318665	1498.056641	4628.853516	4378.069336	91.989769
707.642883	1500.013794	4621.927246	4371.100586	91.965614
707.967102	1503.326050	4619.539551	4360.238770	91.678978
708.291260	1507.907349	4620.271484	4362.841309	91.728790
708.615295	1511.757324	4613.496582	4362.067383	91.893929
708.939331	1514.875854	4623.369141	4368.132813	91.789063
709.263367	1517.671875	4634.337891	4374.649902	91.667763
709.587280	1525.285645	4649.156250	4382.435547	91.461853
709.911194	1529.910034	4660.512207	4394.049805	91.488464
710.234985	1534.168457	4682.300293	4407.169434	91.260506
710.558716	1538.620728	4706.905762	4426.870605	91.161301
710.882568	1546.449707	4732.435547	4454.573242	91.278610
711.206177	1551.869629	4761.234863	4481.909668	91.296562
711.529785	1558.451172	4791.948242	4510.601563	91.298996
711.853394	1566.322998	4811.542480	4534.905762	91.475563
712.176880	1571.054810	4837.051270	4554.005371	91.333549
712.500427	1575.356567	4848.170898	4565.770020	91.371315
712.823792	1581.636841	4854.945801	4572.157715	91.360786
713.147217	1587.981689	4857.269043	4576.352051	91.407394
713.470520	1594.068481	4847.482422	4570.394043	91.483154
713.793823	1596.627808	4831.975098	4557.360840	91.512062
714.117004	1599.639038	4813.134277	4540.283203	91.509209
714.440247	1599.165894	4789.754395	4510.193359	91.237946
714.763367	1603.875854	4761.858887	4482.534180	91.154968
715.086365	1608.371094	4733.424805	4454.810547	91.084496
715.409485	1608.629272	4712.583984	4429.731445	90.887352
715.732361	1610.801636	4689.419922	4410.890137	90.952766
716.055298	1614.780762	4668.600098	4393.447266	90.989876
716.378174	1617.232544	4652.146484	4380.112305	91.036514
716.700928	1617.490723	4631.476563	4363.056641	91.094185
717.023804	1617.533691	4612.958496	4344.151367	91.026077
717.346558	1623.104248	4589.815918	4322.169922	90.978363
717.669189	1625.040161	4560.134766	4294.209473	90.939804
717.991760	1629.470703	4523.679199	4267.195313	91.138031
718.314392	1629.169556	4482.189453	4231.685547	91.219696
718.636902	1627.621094	4440.808105	4190.690918	91.109116
718.959351	1629.341797	4385.704590	4143.566895	91.215317
719.281738	1630.244995	4331.891113	4091.754150	91.111465
719.604065	1629.642700	4277.132324	4038.779785	90.997040
719.926453	1629.685913	4219.189453	3982.600830	90.863564
720.248718	1630.782715	4167.097168	3933.132568	90.775414
720.570923	1631.535522	4116.423828	3888.202148	90.815613
720.893066	1628.094116	4070.225098	3849.079102	90.944550
721.215088	1627.599487	4024.885742	3808.880371	90.989586
721.537170	1624.631348	3983.074463	3772.811768	91.084679
721.859192	1624.695801	3953.220947	3742.441650	90.947945
722.181152	1625.448730	3915.560303	3715.987549	91.285454
722.503052	1625.964844	3889.772461	3694.565674	91.377060
722.824951	1626.739136	3870.092285	3674.606201	91.285995
723.146790	1625.857300	3852.434326	3659.894531	91.352654
723.468506	1624.373169	3838.518799	3650.366455	91.502266
723.790161	1624.953979	3823.914795	3634.149170	91.370209
724.111816	1626.889771	3815.247070	3623.008057	91.215370
724.433472	1631.427856	3805.503906	3609.543701	90.986504
724.755005	1636.890991	3800.771973	3606.769531	91.034523
725.076477	1641.708862	3796.147705	3601.156250	90.949310
725.397888	1646.956665	3793.975586	3594.897461	90.727692
725.719299	1652.613281	3796.771240	3595.864990	90.630066
726.040710	1656.097656	3798.341553	3595.714600	90.541367
726.361938	1660.291748	3797.567383	3599.951416	90.753838
726.683167	1668.808716	3805.762451	3607.005615	90.699066
727.004395	1676.659058	3811.676758	3611.909912	90.643318
727.325500	1686.273438	3822.968750	3626.900879	90.823776
727.646667	1695.306763	3836.905273	3644.085938	90.996468
727.967651	1702.640991	3852.821289	3666.217285	91.321480
728.288635	1711.201172	3870.888184	3682.692871	91.285988
728.609558	1721.976685	3887.062500	3697.038818	91.223267
728.930481	1729.267944	3898.289307	3711.406250	91.383987
729.251282	1736.430054	3910.721191	3722.848633	91.359367
729.572021	1742.646118	3921.582764	3732.139893	91.305725
729.892761	1749.743774	3928.292969	3739.194580	91.319977
730.213440	1756.110107	3928.594482	3741.237549	91.375916
730.534119	1766.390747	3936.121826	3745.517822	91.215324
730.854675	1771.036743	3941.284180	3746.636475	91.031075
731.175171	1775.725342	3945.972412	3748.055664	90.880447
731.495605	1783.597290	3952.231445	3748.012695	90.583069
731.816101	1788.436646	3954.468506	3748.958740	90.512161
732.136475	1790.307739	3957.630371	3756.615723	90.725204
732.456787	1797.340942	3961.308350	3762.380371	90.807259
732.777039	1803.900879	3962.813477	3767.413086	90.949127
733.097229	1807.621826	3969.911133	3775.091553	90.990128
733.417480	1813.644165	3973.847412	3780.963379	91.071030
733.737549	1815.558472	3973.825684	3779.220947	90.983292
734.057617	1816.268066	3964.921631	3773.714600	91.101074
734.377563	1818.461670	3945.822021	3764.014648	91.453850
734.697510	1819.666138	3920.313477	3741.108643	91.469063
735.017517	1818.268433	3893.535889	3717.256104	91.505676
735.337341	1818.719971	3861.488525	3686.564697	91.436920
735.657166	1820.462158	3826.151367	3652.689209	91.351494
735.976868	1816.547607	3791.652344	3620.448975	91.331932
736.296631	1813.084839	3753.604736	3583.433594	91.230644
736.616272	1813.213745	3716.202393	3547.579102	91.139030
736.935852	1811.278076	3682.929443	3512.478271	90.893005
737.255371	1811.815918	3650.839600	3485.077148	90.986389
737.574829	1811.643799	3622.341553	3458.923340	90.974846
737.894348	1811.407349	3606.791260	3439.953125	90.707382
738.213745	1814.203247	3598.833496	3430.166992	90.548935
738.533081	1817.063965	3588.465820	3427.585938	90.917931
738.852356	1821.601929	3593.047119	3431.091553	90.857430
739.171570	1827.516724	3600.704102	3432.984619	90.541359
739.490784	1835.560669	3604.403320	3436.963379	90.533928
739.809937	1843.583130	3611.028320	3440.275635	90.339012
740.129028	1851.089478	3604.791260	3440.534180	90.633698
740.447998	1855.305176	3598.725830	3439.953125	90.893036
740.767029	1858.983154	3595.972656	3435.350586	90.752846
741.085999	1862.682373	3588.423340	3428.553711	90.736176
741.404846	1864.101929	3573.109375	3415.175781	90.758751
741.723633	1863.327637	3551.988525	3400.916260	91.053726
742.042358	1861.714478	3528.221924	3370.159424	90.515343
742.361145	1858.617310	3494.196289	3342.564697	90.729179
742.679810	1856.509644	3461.418213	3314.388916	90.838776
742.998413	1852.638184	3425.457031	3283.266602	90.959518
743.316956	1846.250122	3390.420410	3255.220459	91.244492
743.635498	1841.324951	3362.674805	3224.313477	90.905357
743.953979	1838.141724	3338.628906	3198.675781	90.672821
744.272400	1836.464111	3308.108643	3174.780518	90.940193
744.590698	1833.302368	3283.417725	3149.831055	90.787857
744.909058	1829.388184	3260.339600	3128.624268	90.795265
745.227356	1827.409424	3239.820557	3107.589600	90.637924
745.545471	1826.742554	3222.097900	3093.264893	90.767014
745.863586	1825.409058	3203.257080	3076.209229	90.779259
746.181702	1820.806519	3183.792236	3061.885010	91.055870
746.499756	1820.118042	3175.942139	3048.205566	90.578674
746.817810	1822.569946	3166.972900	3039.322754	90.505066
747.135742	1823.430420	3161.961670	3032.891602	90.357338
747.453613	1824.548828	3153.874756	3022.804443	90.140091
747.771423	1827.086670	3149.702148	3021.900879	90.337234
748.089233	1829.581543	3145.250000	3022.782959	90.691650
748.406982	1837.389038	3144.432617	3022.654053	90.682899
748.724609	1841.045410	3145.271240	3023.708008	90.679283
749.042236	1846.572754	3143.980713	3028.848389	91.125977
749.359863	1850.121826	3147.078125	3033.988525	91.280388
749.677429	1858.208862	3152.046631	3037.171875	91.121391
749.994873	1863.779297	3154.154541	3043.603027	91.432610
750.312256	1868.812134	3155.143555	3042.463135	91.240173
750.629639	1872.103027	3156.003906	3045.258789	91.374329
750.946960	1880.189941	3156.842773	3046.742920	91.375900
751.264282	1882.168823	3154.025146	3044.656982	91.400902
751.581482	1887.266113	3152.132568	3044.075928	91.457069
751.898621	1888.406128	3150.110840	3043.839600	91.577171
752.215698	1892.427856	3147.938477	3039.881836	91.393410
752.532715	1894.256348	3147.615723	3036.333008	91.121246
752.849792	1898.020264	3148.476318	3033.752197	90.825417
753.166748	1901.031372	3146.454590	3034.848633	91.038712
753.483643	1904.773804	3142.066650	3033.666260	91.238907
753.800476	1906.128906	3139.851563	3035.322510	91.527344
754.117310	1911.591797	3139.421143	3033.042725	91.336060
754.434082	1912.387451	3135.506836	3036.225586	91.882950
754.750732	1916.517090	3139.636475	3034.634277	91.415215
755.067383	1920.689575	3141.378662	3038.268799	91.553146
755.383911	1923.765259	3137.077148	3036.591553	91.718071
755.700562	1925.507324	3139.120117	3035.171875	91.434807
756.016968	1927.314087	3137.313477	3033.709229	91.437660
756.333435	1931.400757	3130.818115	3030.504639	91.636482
756.649780	1933.981934	3129.010986	3026.654541	91.434814
756.966064	1936.562866	3129.484619	3025.686768	91.298859
757.282410	1940.885620	3129.742432	3027.256836	91.379486
757.598633	1945.940186	3132.732178	3035.322021	91.792145
757.914795	1951.403076	3138.883545	3040.183350	91.688271
758.230896	1957.575806	3146.303955	3052.550537	92.113129
758.546936	1962.092651	3158.283691	3060.164063	91.797325
758.862976	1970.932495	3168.198975	3069.584961	91.763405
759.178894	1979.664795	3177.253662	3080.747070	91.941589
759.494812	1988.332764	3188.308838	3093.307861	92.083092
759.810669	1994.247314	3199.622070	3107.051514	92.320183
760.126526	2002.269653	3208.569580	3116.945313	92.404518
760.442261	2008.829590	3214.806885	3124.408691	92.504158
760.757935	2013.389160	3224.119629	3130.237305	92.245811
761.073608	2015.905762	3225.711670	3130.043701	92.092285
761.389160	2018.207031	3227.905518	3134.237549	92.256920
761.704712	2024.917603	3230.164063	3133.355713	91.967758
762.020203	2029.025513	3229.217285	3136.925781	92.310272
762.335571	2033.348755	3242.917969	3146.712402	92.046295
762.650940	2045.221191	3264.253906	3174.049072	92.600296
762.966370	2069.826416	3312.926514	3221.796875	92.669167
763.281677	2110.368896	3394.571045	3303.118896	92.878677
763.596863	2154.266602	3499.401367	3409.626709	93.325974
763.911987	2199.627197	3606.425537	3509.811035	93.132317
764.227112	2239.911865	3690.006104	3593.907715	93.372955
764.542236	2273.378174	3756.508545	3657.743652	93.340782
764.857178	2297.596436	3808.837646	3701.383545	92.889679
765.172119	2311.985352	3837.636719	3733.172607	93.152817
765.487061	2324.567383	3858.413330	3750.271240	92.949615
765.801880	2333.579590	3864.199219	3754.916992	92.860260
766.116760	2329.127197	3845.895996	3735.064697	92.692932
766.431458	2312.781006	3798.449463	3686.972656	92.496521
766.746155	2276.217529	3709.492188	3600.252197	92.378296
767.060791	2232.878906	3593.026367	3485.657715	92.106102
767.375427	2185.518066	3471.462402	3372.009277	92.266144
767.689941	2143.964600	3367.729004	3271.588379	92.143860
768.004395	2109.250732	3278.169434	3192.395508	92.662117
768.318848	2084.258301	3200.246094	3122.860107	93.065697
768.633179	2062.449219	3138.819336	3063.540771	93.006256
768.947632	2041.629395	3083.199219	3009.233398	92.898621
769.261841	2020.831177	3027.923584	2963.399414	93.593025
769.576111	2006.678955	2983.724365	2920.383301	93.517082
769.890259	1989.106689	2941.031250	2881.045166	93.698441
770.204285	1975.750122	2907.843994	2844.202148	93.172165
770.518433	1961.920410	2873.883057	2810.068848	93.002541
770.832458	1952.607422	2845.836670	2781.506104	92.797981
771.146362	1943.423706	2820.134521	2754.298584	92.490578
771.460205	1933.056763	2796.303711	2728.574951	92.154182
771.774109	1919.915283	2772.106934	2706.185059	92.264427
772.087952	1911.527344	2752.814209	2683.041992	91.706490
772.401672	1906.257813	2728.961670	2665.771240	92.319176
772.715332	1899.999146	2712.916748	2644.994385	91.644615
773.028992	1892.600342	2696.527588	2626.690918	91.313065
773.342590	1889.029785	2679.643555	2612.947266	91.563988
773.656128	1883.308716	2663.641846	2597.999268	91.587875
773.969604	1882.491455	2651.618896	2584.277344	91.244423
774.283020	1878.211426	2633.035889	2571.996338	91.913414
774.596375	1872.275024	2618.776123	2561.779785	92.364868
774.909729	1869.930542	2604.322510	2549.799805	92.575806
775.223022	1867.220581	2592.988037	2537.110107	92.300850
775.536194	1863.198730	2577.394775	2530.700928	93.462044
775.849304	1855.670776	2568.318359	2519.215576	93.109810
776.162476	1850.422729	2556.790039	2512.741699	93.764099
776.475525	1848.530029	2546.122070	2505.471680	94.172752
776.788513	1845.002808	2538.701660	2493.706787	93.513771
777.101440	1843.153198	2527.668213	2486.587646	93.998589
777.414307	1839.561279	2518.742432	2481.963623	94.584831
777.727173	1836.227661	2514.161133	2477.339355	94.568527
778.039978	1838.034058	2506.654541	2468.305908	94.264511
778.352722	1836.076904	2499.858154	2461.337402	94.196770
778.665405	1835.302612	2495.126465	2457.637939	94.318405
778.977966	1834.872559	2493.212158	2451.271484	93.629326
779.290649	1836.442871	2491.233643	2446.862305	93.223587
779.603149	1840.034424	2487.964600	2441.743408	92.866333
779.915588	1839.238647	2485.254150	2438.560303	92.772026
780.227966	1840.120361	2478.371582	2437.355713	93.573708
780.540405	1838.744019	2478.543457	2434.086426	93.051414
780.852722	1835.496460	2476.543457	2426.967529	92.266411
781.164917	1834.592896	2467.983398	2419.181396	92.295113
781.477173	1832.033325	2461.509277	2413.481934	92.370262
781.789246	1829.624634	2456.046387	2406.341309	92.065239
782.101379	1827.323120	2448.131348	2399.179199	92.114769
782.413452	1823.838989	2439.441895	2390.468262	92.044609
782.725403	1822.591675	2429.354736	2382.875977	92.339882
783.037292	1816.784424	2421.999268	2375.907227	92.384186
783.349182	1815.794922	2409.911621	2363.540283	92.194908
783.661072	1809.579224	2401.222168	2354.442383	92.093239
783.972839	1804.868652	2387.263672	2341.774170	92.189240
784.284546	1804.739746	2378.101074	2333.450195	92.212433
784.596191	1801.664063	2370.938965	2325.342041	91.990349
784.907898	1797.104370	2363.884277	2315.964355	91.545235
785.219421	1795.104248	2357.883545	2308.178711	91.167969
785.530884	1795.211670	2350.872070	2300.994629	91.023758
785.842346	1793.276123	2343.709961	2296.262939	91.380066
786.153748	1790.522949	2338.892090	2291.316162	91.324104
786.465149	1789.232300	2331.643799	2284.648682	91.335892
786.776428	1784.156616	2330.697510	2285.100586	91.657181
787.087646	1785.490112	2327.385254	2281.745117	91.577682
787.398804	1789.339844	2330.976807	2288.971680	92.244781
787.709961	1790.759644	2338.977783	2298.392334	92.596840
788.021057	1800.373535	2356.098389	2312.006836	92.065941
788.332031	1810.288696	2372.960693	2329.364014	92.251846
788.643005	1817.429565	2386.016113	2346.247559	93.005714
788.953918	1820.397583	2399.824219	2359.109375	92.973251
789.264832	1826.333862	2412.987061	2370.357910	92.733498
789.575623	1831.344971	2423.225098	2378.810791	92.496063
789.886353	1835.711304	2428.795898	2384.209473	92.482285
790.197083	1839.690308	2433.312500	2387.263428	92.242699
790.507690	1840.830200	2432.882080	2390.618896	92.861572
790.818359	1839.883667	2430.000244	2383.478271	92.116478
791.128845	1834.033569	2417.439453	2370.444336	91.944695
791.439331	1825.021606	2397.372314	2350.183838	91.755318
791.749756	1813.493408	2376.122314	2329.321045	91.681679
792.060120	1803.513794	2354.442139	2304.392822	90.915459
792.370483	1794.286987	2334.676270	2286.541260	91.092529
792.680786	1784.500732	2314.157715	2266.904541	91.078529
792.990967	1776.564331	2292.499023	2250.945557	91.945984
793.301086	1769.896606	2278.476074	2236.126465	91.672958
793.611267	1764.067993	2265.033447	2224.662598	91.941391
793.921326	1759.529785	2255.290039	2214.102539	91.692055
794.231323	1754.927246	2244.105713	2204.380615	91.879219
794.541260	1753.980835	2236.771729	2199.283447	92.235092
794.851074	1751.786743	2231.502197	2198.810059	93.185097
795.161011	1751.528931	2228.921143	2196.723633	93.255547
795.470764	1754.389404	2235.287354	2201.089844	92.888824
795.780518	1759.572754	2239.739990	2206.144287	93.003334
796.090149	1766.197388	2247.396729	2213.779541	93.013878
796.399780	1772.499268	2258.581055	2220.683594	92.203484
796.709412	1774.069214	2264.280518	2230.018066	93.010674
797.018860	1780.285156	2268.474609	2236.061768	93.360603
797.328308	1782.737061	2277.400635	2238.728760	92.182190
797.637756	1785.447144	2283.745361	2242.514648	91.725693
797.947205	1786.630005	2284.154053	2244.041504	91.937569
798.256470	1786.974121	2284.003662	2243.396240	91.829979
798.565674	1787.748413	2281.400879	2240.320557	91.678291
798.874817	1783.619019	2271.808350	2235.072754	92.475136
799.183960	1780.306641	2263.377197	2225.114502	92.079277
799.493103	1774.843628	2252.300537	2211.392334	91.432060
799.802124	1768.068481	2240.364014	2200.509277	91.561485
800.111084	1765.423096	2231.007813	2187.023682	90.552925
800.419983	1757.594238	2220.597900	2174.893311	90.128677
800.728821	1752.002075	2205.671387	2162.977783	90.589272
801.037659	1750.432007	2192.680420	2154.395996	91.343231
801.346436	1747.657471	2185.152588	2146.480713	91.160614
801.655151	1742.603027	2176.721436	2136.221680	90.670807
801.963745	1741.591919	2167.816895	2128.930420	90.876541
802.272400	1741.463013	2161.794678	2119.337646	89.899162
802.580933	1737.268799	2153.707520	2114.025146	90.471016
802.889404	1734.343750	2144.631348	2108.454590	91.182587
803.197815	1729.095825	2138.264893	2101.808838	91.090225
803.506226	1725.095581	2133.769775	2098.260010	91.310982
803.814575	1721.826294	2127.876465	2092.904541	91.387291
804.122864	1719.697144	2125.983643	2092.237793	91.694077
804.431030	1715.395386	2124.499756	2089.054688	91.335938
804.739197	1712.749878	2121.488525	2085.312256	91.149292
805.047241	1713.330566	2120.800293	2085.398193	91.311722
805.355408	1710.276489	2122.757568	2088.000732	91.573715
805.663391	1708.082764	2125.682617	2094.732666	92.588608
805.971313	1711.201294	2130.242432	2095.937256	91.813408
806.279175	1714.319946	2137.211182	2097.851318	90.692673
806.587036	1716.363281	2140.802979	2098.905273	90.128700
806.894836	1720.126953	2140.845947	2096.689941	89.504631
807.202576	1724.278198	2142.029053	2099.722412	89.872757
807.510193	1724.471802	2142.308350	2097.120117	89.185188
807.817810	1725.396484	2135.447266	2094.947754	90.123291
808.125427	1725.224487	2131.231934	2091.635742	90.247421
808.432922	1721.933594	2127.898193	2083.075439	88.958954
808.740295	1718.040649	2119.531494	2075.956055	89.146591
809.047729	1717.632080	2107.551270	2064.513916	88.962494
809.355103	1711.997192	2094.883057	2054.964355	89.574257
809.662415	1704.103516	2085.247559	2045.608276	89.599922
809.969604	1702.103394	2072.256836	2037.714844	90.668198
810.276794	1697.048950	2061.631836	2031.994019	91.870758
810.583923	1689.972778	2053.394043	2023.433472	91.755966
810.890991	1685.821777	2045.887817	2014.550781	91.296867
811.197998	1681.670654	2042.532715	2005.452759	89.724617
811.505005	1678.207886	2036.574951	2000.807129	90.019218
811.811829	1677.541138	2028.573853	1998.398315	91.403786
812.118713	1675.046387	2022.917236	1992.332764	91.208099
812.425537	1671.669800	2017.002441	1984.202759	90.502007
812.732300	1667.927246	2014.357056	1975.857788	88.886848
813.038940	1665.281738	2007.947754	1971.018433	89.222939
813.345581	1662.550049	2005.667847	1967.340576	88.829704
813.652100	1659.560425	2000.721069	1961.468750	88.494476
813.958740	1655.753540	1994.419067	1954.457031	88.200150
814.265137	1654.699585	1989.364746	1949.015625	87.943436
814.571533	1651.064941	1985.213745	1945.810913	88.208000
814.877930	1647.687988	1978.890503	1941.595337	88.739471
815.184265	1642.418701	1974.631714	1936.627075	88.560158
815.490540	1640.332397	1971.986206	1934.325806	88.644669
815.796692	1638.417969	1970.760254	1935.809814	89.483604
816.102844	1639.880737	1969.448120	1939.530884	90.922272
816.408936	1640.934326	1967.319092	1938.906982	91.294907
816.714966	1639.321411	1963.705566	1940.025513	92.699997
817.020935	1640.224609	1964.114380	1940.605957	92.741844
817.326843	1644.332764	1969.319214	1942.132935	91.634644
817.632690	1644.784424	1974.051147	1946.090576	91.508232
817.938477	1646.569580	1978.933228	1951.833252	91.846291
818.244263	1651.344482	1986.310547	1953.102295	90.086082
818.549988	1655.624512	1993.666504	1959.834351	89.991730
818.855652	1664.614746	2002.420288	1968.587891	89.984650
819.161194	1673.196533	2017.282349	1983.837158	90.279984
819.466797	1682.531250	2035.585571	2002.742676	90.697495
819.772278	1697.113647	2064.341797	2028.229736	90.166313
820.077698	1716.857910	2098.711670	2057.588135	89.230553
820.383057	1736.817505	2138.243408	2096.431641	89.584190
820.688354	1759.551514	2182.098389	2142.674072	90.669838
820.993652	1794.373047	2239.266846	2199.498291	91.061111
821.298828	1849.239868	2335.816162	2296.520996	91.924149
821.604004	1957.984497	2530.765381	2485.920898	92.170746
821.909058	2141.426758	2852.417969	2797.056396	92.213463
822.214111	2372.982178	3276.234131	3206.311523	92.258789
822.519165	2622.045410	3728.139160	3640.278809	92.056702
822.824036	2852.590088	4134.684570	4029.789307	91.818443
823.128906	3047.818604	4480.727051	4360.819824	91.631897
823.433716	3204.956299	4764.031250	4635.262207	91.740677
823.738525	3333.811035	4996.641113	4855.848633	91.532959
824.043213	3437.909912	5184.965332	5035.376465	91.437660
824.347900	3516.478760	5324.487793	5172.081543	91.570496
824.652466	3560.140381	5400.970703	5239.057617	91.204346
824.957031	3532.158447	5357.825684	5197.482422	91.217278
825.261536	3423.585693	5163.371094	5013.545898	91.388298
825.565979	3249.542725	4848.858887	4710.238770	91.332535
825.870300	3048.249023	4486.792480	4359.464355	91.148819
826.174622	2863.623535	4162.429688	4047.382813	91.142105
826.478821	2716.530029	3907.107666	3806.235107	91.527428
826.783142	2622.389404	3735.882568	3637.999023	91.209328
827.087280	2566.619141	3632.514648	3538.352295	91.165894
827.391357	2532.292236	3564.441406	3474.624023	91.298019
827.695435	2504.052246	3512.069580	3423.327881	91.196411
827.999451	2473.704346	3458.062744	3372.718994	91.330009
828.303406	2449.722900	3408.035156	3324.734375	91.307556
828.607239	2422.622559	3363.277100	3274.814209	90.595604
828.911011	2400.340332	3317.550781	3230.056152	90.460793
829.214844	2377.778320	3273.803711	3189.363037	90.576088
829.518616	2349.990234	3221.087402	3139.163086	90.595276
829.822205	2310.307861	3143.981201	3063.476563	90.343384
830.125793	2246.235352	3029.880615	2954.215576	90.344475
830.429382	2162.999268	2886.852539	2812.090332	89.671638
830.732849	2077.978027	2735.048584	2663.125244	89.053940
831.036316	1998.312134	2597.225098	2526.721680	88.228104
831.339661	1931.916870	2478.156494	2411.352295	87.770164
831.642944	1874.963379	2376.767822	2311.554932	87.004318
831.946228	1826.355347	2293.552979	2233.975586	87.247925
832.249512	1789.210938	2229.093506	2167.817139	86.069832
832.552673	1762.218384	2179.517334	2121.445557	86.083893
832.855774	1744.603394	2150.331055	2091.872070	85.591568
833.158813	1744.388306	2141.878418	2091.248291	87.262543
833.461731	1761.465576	2169.150635	2118.198242	87.502022
833.764771	1792.566284	2216.683350	2162.569092	87.240723
834.067627	1828.678223	2274.453857	2221.952637	88.222504
834.370422	1863.521118	2330.224365	2278.991943	89.022484
834.673157	1895.202637	2384.897461	2331.514893	89.098808
834.975891	1919.463745	2426.300781	2377.327148	90.337402
835.278564	1941.595581	2461.617188	2412.299072	90.516144
835.581177	1955.188599	2485.383301	2438.280762	91.115990
835.883728	1963.296997	2501.449951	2450.604736	90.551903
836.186218	1962.845337	2501.858398	2449.335938	90.255806
836.488647	1949.682495	2482.694580	2422.816406	88.766075
836.791077	1918.388184	2430.537598	2370.745361	88.325233
837.093384	1879.953247	2358.593506	2311.383057	90.136551
837.395630	1831.882813	2283.444336	2233.868164	89.021172
837.697815	1787.984863	2209.714844	2164.440186	89.264542
838.000061	1746.109009	2140.351318	2098.604004	89.410744
838.302124	1713.395020	2077.698242	2034.768311	88.215881
838.604126	1681.778198	2021.906372	1978.610840	87.270821
838.906128	1653.387817	1971.297974	1931.120972	87.362152
839.208069	1629.255737	1927.894653	1891.202026	87.713379
839.510010	1614.049316	1895.783325	1860.832520	87.594398
839.811829	1602.564087	1873.436401	1840.679688	87.906952
840.113586	1595.337402	1860.596191	1830.893433	88.802345
840.415222	1589.250732	1854.724487	1824.871460	88.754807
840.716919	1588.153809	1848.680786	1822.505371	89.952896
841.018555	1584.669434	1844.207153	1816.633667	89.375923
841.320068	1587.228882	1840.270996	1814.009766	89.621796
841.621521	1584.884399	1839.905151	1816.569214	90.849396
841.922974	1584.669434	1837.496582	1814.913208	91.067665
842.224365	1581.486328	1836.507080	1810.375000	89.752960
842.525635	1580.367920	1829.796509	1803.707397	89.540451
842.826965	1575.205933	1815.300049	1792.652344	90.567154
843.128174	1562.042969	1796.114868	1773.875732	90.499016
843.429260	1550.062988	1774.564087	1754.539917	91.080589
843.730408	1537.050659	1751.808472	1729.676636	89.694511
844.031433	1523.134888	1728.859375	1707.845825	89.785583
844.332397	1514.166016	1708.362183	1688.230591	89.633369
844.633362	1501.132324	1689.413574	1668.981201	89.147949
844.934204	1490.485840	1670.378906	1651.000366	89.227745
845.235046	1481.495483	1652.462891	1634.030518	89.218781
845.535828	1475.924927	1636.116699	1624.093628	92.494576
845.836487	1466.848511	1625.061401	1613.145996	92.468750
846.137146	1458.696899	1616.716431	1601.746826	90.526741
846.437744	1452.437988	1608.263672	1594.713623	91.304352
846.738281	1447.577026	1599.789551	1581.572266	88.031677
847.038757	1441.984985	1591.508911	1573.012085	87.629524
847.339172	1438.350098	1582.497192	1565.269165	88.048302
847.639526	1433.231323	1576.689819	1559.935181	88.320915
847.939819	1429.703979	1571.979614	1556.257324	88.949417
848.240112	1428.284424	1570.302002	1549.009033	85.006805
848.540283	1425.251831	1569.205078	1547.417480	84.864807
848.840393	1424.499146	1570.624512	1541.330811	79.953033
849.140564	1420.412598	1567.936035	1534.899902	77.606178
849.440552	1419.036011	1564.043091	1530.684326	76.995079
849.740540	1419.294189	1560.580444	1526.662231	75.993271
850.040405	1416.863770	1562.344116	1525.307373	74.541756
850.340210	1417.358398	1559.139526	1523.801880	75.075920
850.640137	1417.380005	1556.988403	1520.704590	74.010292
850.939819	1416.024902	1553.869873	1516.661011	73.006729
851.239502	1417.530518	1549.202759	1514.596191	73.717644
851.539185	1414.885132	1545.438721	1513.692993	75.683754
851.838745	1414.863403	1543.890259	1511.305542	74.745789
852.138245	1411.314575	1536.190308	1508.853638	78.108902
852.437744	1412.045898	1532.598511	1508.939575	80.374596
852.737122	1410.927490	1528.555054	1507.283569	81.916245
853.036499	1408.970215	1525.651489	1506.078979	83.225662
853.335815	1410.669434	1518.682861	1506.229614	88.470650
853.635010	1409.443481	1517.478394	1504.078857	87.597031
853.934204	1408.518677	1517.736328	1504.100464	87.514961
854.233276	1407.077637	1515.478149	1503.067993	88.551567
854.532410	1403.206177	1514.230591	1500.637573	87.756729
854.831482	1400.990723	1513.628418	1500.314819	88.180161
855.130371	1398.237671	1508.208252	1498.723145	91.374870
855.429260	1398.581909	1509.326660	1496.378906	88.308472
855.728088	1397.248413	1509.455933	1493.948486	86.179672
856.026855	1395.957886	1508.681641	1492.034302	85.231735
856.325623	1396.495728	1506.917847	1490.636230	85.255112
856.624329	1393.054443	1508.487915	1487.711304	82.001228
856.922913	1392.538208	1505.713379	1485.237915	81.908165
857.221436	1389.935669	1502.487183	1484.227051	83.776199
857.519958	1390.796021	1502.250488	1486.571533	85.932411
857.818420	1394.280151	1502.659302	1487.603882	86.108566
858.116821	1395.871826	1501.046143	1485.388428	85.112602
858.415161	1396.108398	1502.444214	1483.001099	81.715363
858.713379	1397.656982	1498.357544	1482.033081	83.789101
859.011658	1397.592529	1495.496948	1482.742920	86.972977
859.309814	1397.162231	1494.722778	1483.323608	88.315796
859.607910	1396.087036	1493.776489	1480.613525	86.525703
859.905945	1396.065430	1491.152344	1480.290894	88.577347
860.203979	1394.774902	1491.647217	1481.774902	89.808945
860.501953	1395.377197	1493.131226	1477.688477	84.202446
860.799744	1395.162231	1489.001709	1475.516113	85.629082
861.097656	1392.258667	1487.668091	1471.537231	83.093010
861.395325	1388.752808	1486.291626	1469.967285	83.263748
861.693115	1386.924561	1484.721558	1469.816650	84.759338
861.990784	1384.214478	1486.678833	1469.106934	82.850723
862.288330	1384.515747	1485.603394	1469.730469	84.297859
862.585815	1382.988525	1484.850708	1468.095947	83.551537
862.883301	1381.461670	1483.237427	1467.579712	84.615479
863.180786	1379.676270	1482.119141	1464.912842	83.204002
863.478149	1379.052612	1479.710083	1462.310425	82.713989
863.775452	1380.816284	1477.000122	1465.278442	87.813255
864.072693	1380.063599	1478.957520	1466.482910	87.385872
864.369873	1378.385864	1477.236816	1468.052979	90.709412
864.667114	1382.278931	1478.011108	1469.945801	91.575134
864.964111	1385.526611	1479.495239	1469.644531	89.517021
865.261169	1385.741821	1477.559448	1470.913574	92.761879
865.558105	1386.085815	1478.484253	1467.343140	87.942314
865.855042	1386.623535	1479.710327	1467.622681	87.014648
866.151917	1386.558960	1479.387695	1468.461426	88.229645
866.448730	1387.311646	1479.215698	1470.805908	90.849380
866.745422	1388.300903	1479.581177	1470.741333	90.315712
867.042114	1384.881226	1478.871582	1468.354004	88.809937
867.338806	1383.504639	1476.828247	1463.514771	85.734077
867.635376	1384.429565	1473.279419	1461.256348	86.468102
867.931824	1381.697998	1470.418823	1459.987427	88.242447
868.228271	1377.482544	1468.289551	1458.739868	89.483543
868.524658	1376.987793	1467.644287	1458.266724	89.655937
868.821045	1375.654297	1464.762207	1457.169800	91.479538
869.117310	1372.944336	1463.235229	1456.072876	92.067467
869.413574	1373.718628	1464.590088	1455.728760	90.248505
869.709717	1373.309937	1463.858887	1454.395264	89.548615
870.005859	1372.535645	1463.321167	1452.825073	88.438583
870.301880	1374.751099	1464.073975	1450.523804	84.830124
870.597900	1373.482178	1465.471924	1449.104370	82.207199
870.893860	1372.944458	1469.988647	1450.502319	79.920151
871.189636	1372.858521	1471.795288	1448.803223	76.760849
871.485535	1375.181274	1473.128784	1449.900024	76.284485
871.781311	1373.159546	1473.838379	1447.491089	73.830360
872.077026	1372.944336	1476.053711	1448.157837	72.945358
872.372681	1373.116333	1476.914063	1447.813721	71.964378
872.668274	1372.557129	1475.623535	1448.523438	73.706177
872.963806	1373.180908	1475.322388	1448.480469	73.720840
873.259338	1372.987305	1476.806519	1451.018555	75.160706
873.554688	1371.202026	1477.107666	1453.685547	77.883972
873.850098	1372.965698	1475.989258	1456.029907	80.626419
874.145447	1374.170166	1474.548218	1455.535278	81.058670
874.440674	1374.815430	1472.956665	1455.578247	82.292442
874.735840	1375.740356	1470.762817	1455.363281	83.793793
875.031006	1375.310181	1471.816772	1456.223511	83.842285
875.326050	1376.858887	1473.322266	1457.535645	83.634598
875.621094	1378.493530	1472.999756	1458.503296	84.660843
875.916077	1378.041870	1472.397461	1455.019043	81.581993
876.210999	1377.955688	1474.505249	1456.072876	80.908897
876.505798	1377.288940	1473.386719	1454.739380	80.595451
876.800598	1377.891113	1472.096313	1453.900513	80.684929
877.095337	1378.450317	1474.225586	1454.674805	79.586815
877.390015	1380.256958	1476.441040	1453.814575	76.475876
877.684692	1383.956421	1477.709961	1454.373779	75.109016
877.979187	1384.063965	1475.107544	1452.631714	75.313110
878.273804	1385.999634	1474.612793	1451.362671	73.762222
878.568237	1385.462036	1472.074829	1451.513306	76.260406
878.862610	1389.720703	1475.301147	1454.954590	76.225227
879.156921	1391.548828	1481.366455	1460.783203	77.083282
879.451172	1393.570557	1484.979614	1464.375000	77.458893
879.745422	1397.377441	1492.400024	1471.472656	77.976425
880.039612	1404.453613	1503.562622	1480.463013	76.692726
880.333679	1414.175293	1517.392212	1492.572144	75.953491
880.627686	1426.692871	1541.588989	1516.574951	78.228996
880.921692	1448.071899	1581.056152	1552.063232	78.198235
881.215698	1485.151855	1648.505371	1614.135620	78.959892
881.509460	1540.857544	1743.699951	1706.555542	81.688049
881.803345	1615.834473	1867.951904	1825.387573	83.117256
882.097046	1697.027344	2007.667969	1959.705200	84.560043
882.390808	1781.962769	2147.577881	2095.033936	85.628616
882.684448	1864.316895	2284.390625	2225.437256	85.965950
882.978027	1938.240112	2405.029053	2338.913818	85.836159
883.271545	2002.420044	2512.375732	2442.646973	86.326508
883.565002	2054.275879	2604.021729	2534.055908	87.273064
883.858398	2095.011963	2674.782959	2600.752686	87.231117
884.151733	2119.531494	2717.541016	2646.198975	88.070084
884.445068	2122.865479	2726.273438	2654.888184	88.169655
884.738281	2102.690674	2690.333740	2621.034180	88.207199
885.031433	2051.652100	2612.775635	2546.917725	88.263206
885.324585	1987.816040	2503.751221	2443.442383	88.310776
885.617676	1917.505981	2386.231201	2331.923340	88.413712
885.910645	1845.475830	2264.646240	2216.210205	88.444786
886.203552	1777.919189	2154.202393	2110.261475	88.322380
886.496521	1716.234253	2049.866943	2011.281372	88.434715
886.789368	1661.582153	1953.898071	1918.087036	87.749199
887.082153	1610.737183	1865.629028	1838.421387	89.325806
887.374817	1567.570679	1788.802368	1766.283203	89.821007
887.667480	1530.146606	1719.998047	1703.200317	91.152168
887.960083	1495.884277	1663.797607	1653.194092	93.685127
888.252625	1474.569824	1620.888794	1613.963379	95.266907
888.545166	1457.858154	1588.239746	1581.658325	94.952187
888.837524	1442.092651	1563.978638	1557.870361	94.988533
889.129883	1430.650513	1542.836304	1538.169067	95.839729
889.422241	1421.100952	1526.576172	1524.102783	97.655006
889.714478	1416.218750	1510.144165	1528.834595	119.899223
890.006714	1430.177124	1493.819580	1473.946167	68.773338
890.298767	1380.493774	1503.756104	1495.475586	93.282196
890.590881	1384.515625	1464.009399	1452.889648	86.011795
890.882935	1380.020264	1486.011963	1456.675171	72.321617
>>>>>End Processed Spectral Data<<<<<
