Jaz Data File
++++++++++++++++++++++++++++++++++++
Date: Thu Dec 19 19:55:52 2019
User: jaz
Dark Spectrum Present: Yes
Reference Spectrum Present: Yes
Processed Spectrum Present: Yes
Spectrometers: JAZA2928
Integration Time (usec): 32200 (JAZA2928)
Spectra Averaged: 10 (JAZA2928)
Boxcar Smoothing: 5 (JAZA2928)
Correct for Electrical Dark: No (JAZA2928)
Strobe/Lamp Enabled: Yes (JAZA2928)
Correct for Detector Non-linearity: No (JAZA2928)
Correct for Stray Light: No (JAZA2928)
Number of Pixels in Processed Spectrum: 2048
>>>>>Begin Processed Spectral Data<<<<<
W	D	R	S	P
190.104553	0.000000	0.000000	0.000000	0.000000
190.488098	0.000000	0.000000	0.000000	0.000000
190.871613	1222.216064	1221.506226	1225.054932	-399.931213
191.255096	1238.540649	1233.335571	1253.445557	-286.353180
191.638535	0.000000	0.000000	0.000000	0.000000
192.021942	1036.773560	1030.450195	1033.762573	47.616840
192.405334	1155.648560	1147.669067	1150.120972	69.272430
192.788696	1274.652466	1262.909058	1269.576660	43.222595
193.172012	1281.298462	1269.963745	1275.641846	49.905228
193.555313	1285.621704	1275.921387	1278.567017	72.726357
193.938568	1287.686401	1279.212036	1279.965088	91.113770
194.321793	1290.460938	1281.040405	1283.901001	69.634460
194.704987	1289.019897	1284.245117	1284.374146	97.297714
195.088150	1289.234985	1288.267090	1282.954712	648.858643
195.471298	1289.493042	1288.654419	1281.083496	1002.780212
195.854401	1289.772705	1286.008911	1279.792969	265.150970
196.237457	1290.568481	1284.460205	1277.319580	216.900818
196.620499	1288.439331	1282.847168	1275.168823	237.305450
197.003494	1284.438721	1283.922485	1272.673828	2278.978516
197.386475	1282.524536	1283.363403	1272.200806	-1230.675171
197.769424	1281.212402	1279.771484	1271.985718	640.333801
198.152344	1276.953857	1280.287720	1272.910645	-121.277138
198.535217	1276.007568	1284.933472	1272.587891	-38.311840
198.918076	1276.867920	1284.051636	1273.340698	-49.100239
199.300903	1277.900269	1285.406616	1272.996460	-65.328827
199.683670	1277.362671	1288.159668	1275.190308	-20.120070
200.066422	1276.029175	1290.396362	1274.630981	-9.731852
200.449142	1272.996338	1293.257080	1275.383911	11.784234
200.831848	1272.308105	1295.923950	1277.642090	22.586464
201.214508	1273.082520	1297.494019	1276.738770	14.977572
201.597137	1270.372437	1297.322144	1275.706421	19.792364
201.979736	1270.437012	1300.462280	1273.921265	11.604403
202.362274	1269.383057	1301.989380	1274.286987	15.039815
202.744827	1266.500977	1300.075073	1272.286743	17.232828
203.127319	1266.672974	1301.387085	1271.211426	13.073796
203.509796	1265.511597	1299.752441	1272.673828	20.917215
203.892227	1264.479126	1296.504761	1271.146851	20.819962
204.274643	1262.263794	1295.128174	1271.964111	29.516205
204.657013	1263.597534	1293.515137	1272.179199	28.684334
205.039352	1263.640503	1292.095581	1269.856323	21.844328
205.421661	1264.092163	1289.751221	1270.028442	23.135220
205.803940	1264.909424	1291.364380	1268.157349	12.277188
206.186188	1265.898804	1292.547241	1268.737915	10.653951
206.568405	1264.973755	1292.353638	1269.641235	17.047117
206.950592	1264.758911	1290.504028	1268.630371	15.037647
207.332748	1262.328491	1288.654297	1267.038696	17.891970
207.714859	1261.661621	1287.793945	1264.758911	11.852333
208.096939	1260.478760	1288.116577	1264.113647	13.151862
208.478989	1260.220581	1289.772583	1263.834106	12.227684
208.861008	1258.392456	1290.697388	1264.758911	19.707378
209.243011	1256.542847	1291.041504	1263.468506	20.075155
209.624969	1254.563965	1292.740723	1262.070435	19.662407
210.006897	1256.112671	1290.503906	1262.715698	19.199739
210.388794	1252.155273	1290.288940	1261.747803	25.155014
210.770645	1254.585693	1292.611816	1257.274170	7.070078
211.152481	1253.273560	1292.353638	1257.682739	11.282423
211.534286	1252.133789	1291.041626	1258.586060	16.583473
211.916061	1251.208862	1291.536255	1257.833252	16.426525
212.297791	1251.488403	1293.773193	1259.661377	19.328402
212.679489	1250.240967	1292.418213	1259.769043	22.590561
213.061157	1249.832275	1292.224731	1261.059570	26.484180
213.442795	1248.907471	1290.891113	1262.564941	32.530457
213.824402	1249.208618	1290.891113	1261.210083	28.792578
214.205963	1249.251587	1292.998901	1262.199463	29.596962
214.587524	1250.778687	1292.697754	1260.543335	23.294050
214.969025	1250.004395	1290.955688	1260.543335	25.735306
215.350510	1251.638916	1293.730347	1259.446411	18.548895
215.731949	1254.628540	1297.343628	1259.467896	11.329382
216.113358	1253.961792	1301.021484	1259.575317	11.928521
216.494736	1254.542603	1302.505493	1258.457031	8.161369
216.876083	1258.156006	1306.893066	1258.564575	0.838313
217.257401	1258.543091	1309.237427	1257.274170	-2.503082
217.638702	1260.457275	1314.420898	1256.908569	-6.576108
218.019943	1260.607910	1316.421265	1259.661621	-1.695453
218.401169	1260.048706	1319.152710	1259.898071	-0.254864
218.782349	1262.521973	1321.927246	1262.952148	0.724137
219.163498	1263.059692	1323.755371	1266.458008	5.598941
219.544632	1262.479004	1325.282593	1269.038940	10.445162
219.925705	1262.070313	1328.229248	1270.479858	12.711126
220.306778	1261.704712	1329.971313	1270.587402	13.011766
220.687805	1260.328247	1330.100464	1271.727417	16.337692
221.068802	1259.102417	1331.304810	1272.609253	18.706909
221.449738	1259.575439	1335.176270	1273.577271	18.520737
221.830673	1260.844482	1340.144653	1275.986206	19.094189
222.211563	1260.564819	1345.908691	1276.050659	18.145227
222.592438	1260.005615	1350.704956	1277.211914	18.970699
222.973267	1257.661133	1356.189453	1275.899902	18.511194
223.354065	1257.489136	1360.684570	1276.588257	18.507719
223.734848	1257.983765	1367.545776	1279.577881	19.709492
224.115555	1257.058838	1371.632324	1280.803833	20.724686
224.496262	1259.274292	1378.923584	1284.847412	21.373398
224.876923	1259.166748	1387.118164	1287.299316	21.986914
225.257568	1258.413940	1396.839844	1289.643677	22.560616
225.638168	1257.467651	1405.399902	1293.127930	24.105818
226.018723	1255.510376	1415.358154	1296.547729	25.672771
226.399277	1256.671875	1429.618042	1302.785034	26.663301
226.779785	1256.284668	1448.308594	1309.130005	27.520184
227.160263	1256.564331	1469.364868	1316.958862	28.380817
227.540695	1255.811523	1498.056519	1325.024536	28.571493
227.921112	1255.682495	1535.050659	1331.197266	27.030558
228.301483	1256.327637	1587.142944	1346.446411	27.241417
228.681824	1255.940552	1654.613770	1365.373535	27.449293
229.062134	1257.187988	1742.345215	1386.860107	26.727856
229.442413	1256.822388	1835.195313	1411.766357	26.789631
229.822647	1256.736450	1917.162231	1431.145020	26.408504
230.202881	1256.370850	1976.868774	1447.491089	26.526133
230.583054	1255.919067	2022.057129	1456.782715	26.217684
230.963196	1257.231079	2059.610352	1462.073730	25.529406
231.343292	1256.671875	2089.786133	1471.644653	25.803516
231.723404	1257.381592	2115.445068	1475.731323	25.446804
232.103439	1258.865601	2118.628174	1478.677979	25.566637
232.483459	1259.683105	2104.992188	1474.698975	25.436361
232.863434	1258.586060	2070.450195	1462.353394	25.098700
233.243393	1258.285034	2015.389771	1447.039551	24.931097
233.623306	1259.682983	1957.339478	1431.123535	24.573776
234.003174	1262.436035	1916.216064	1419.767456	24.064886
234.383041	1264.672852	1894.191772	1414.928101	23.868265
234.762848	1262.823120	1883.179688	1412.777222	24.172243
235.142639	1262.758667	1874.318359	1412.970825	24.562141
235.522385	1263.877075	1869.134888	1408.153076	23.837114
235.902115	1263.984619	1861.284424	1408.325073	24.165495
236.281799	1261.790894	1867.285156	1408.819702	24.282444
236.661438	1260.521851	1877.587524	1408.368042	23.959555
237.041077	1259.962646	1886.642456	1413.572998	24.511776
237.420654	1258.521606	1899.052368	1416.347534	24.639868
237.800217	1259.618530	1908.171875	1414.626953	23.900644
238.179733	1258.392456	1913.032715	1414.885010	23.905123
238.559219	1255.639526	1920.151855	1411.551270	23.462582
238.938690	1257.015991	1925.270630	1411.422363	23.105919
239.318100	1257.059082	1934.110840	1410.282349	22.630953
239.697510	1257.037476	1949.876099	1413.745239	22.618219
240.076859	1259.962524	1975.535156	1418.520020	22.158127
240.456177	1263.360840	2010.206177	1423.402344	21.429003
240.835464	1266.350464	2052.361816	1434.392822	21.379126
241.214722	1268.243286	2118.499023	1445.060791	20.795803
241.593948	1271.835083	2203.584961	1464.374878	20.664322
241.973129	1272.007080	2313.103760	1491.969849	21.127987
242.352295	1273.104004	2449.937988	1523.070435	21.240585
242.731415	1274.028809	2594.773438	1556.644409	21.398201
243.110519	1276.136597	2738.920410	1586.841675	21.240669
243.489578	1279.879028	2854.095703	1613.941772	21.220886
243.868607	1280.524292	2936.471680	1633.342163	21.306105
244.247604	1278.610107	2992.048340	1646.419067	21.466135
244.626541	1278.545654	3030.138916	1653.000488	21.377956
245.005493	1277.706665	3060.357910	1657.732300	21.318003
245.384369	1278.093872	3082.252930	1663.883545	21.383352
245.763229	1277.039917	3105.395264	1666.937866	21.325064
246.142059	1276.695801	3143.271240	1674.185913	21.295155
246.520859	1278.373413	3211.688232	1688.209106	21.198601
246.899612	1283.535278	3337.144531	1715.524658	21.035616
247.278336	1285.127075	3500.261475	1750.883667	21.026112
247.657043	1286.783081	3670.949219	1789.877808	21.101498
248.035690	1292.074097	3825.097412	1821.730957	20.910065
248.414322	1294.633545	3956.468994	1851.734741	20.929213
248.792908	1296.332642	4057.556885	1876.920776	21.026476
249.171478	1296.440308	4134.491211	1895.976685	21.124935
249.550003	1297.472656	4170.065430	1904.408081	21.128489
249.928482	1299.150269	4163.354980	1905.612549	21.173847
250.306961	1300.655762	4105.949707	1891.503174	21.061872
250.685364	1299.193237	3984.687500	1863.800903	21.024349
251.063782	1295.364746	3801.374268	1824.677612	21.121742
251.442123	1292.891357	3596.402344	1783.231689	21.286650
251.820450	1288.761841	3427.220215	1747.420776	21.448111
252.198761	1285.148438	3321.271729	1725.676147	21.635611
252.576996	1283.771973	3252.962402	1706.942627	21.489574
252.955246	1284.266724	3202.784180	1696.640259	21.494385
253.333420	1282.395508	3155.960938	1682.681641	21.364941
253.711578	1282.094360	3120.386719	1671.862915	21.202751
254.089706	1281.234009	3094.641602	1665.496826	21.190096
254.467804	1278.696167	3074.488281	1662.528809	21.374002
254.845871	1278.954224	3059.067383	1661.259644	21.476467
255.223877	1279.362915	3035.322754	1655.517090	21.421570
255.601898	1279.986572	3003.275635	1646.849487	21.288530
255.979828	1278.072266	2957.786133	1632.503418	21.100687
256.357727	1275.921509	2903.155518	1620.652344	21.185080
256.735657	1277.986328	2861.386719	1611.898560	21.088301
257.113525	1275.469849	2853.579346	1610.672607	21.240780
257.491333	1275.814087	2883.432617	1617.512207	21.254925
257.869110	1277.921875	2942.601318	1631.987183	21.269279
258.246887	1279.448975	3030.805664	1651.172241	21.224874
258.624573	1278.932617	3157.036133	1680.164917	21.363695
259.002289	1279.792969	3341.295898	1722.084106	21.454790
259.379944	1281.255493	3600.080322	1776.542603	21.359404
259.757538	1282.567505	3934.035400	1844.249878	21.183828
260.135162	1288.331665	4299.199219	1922.109009	21.049658
260.512665	1292.977417	4625.433105	1988.891479	20.882921
260.890228	1291.622437	4865.914551	2037.564331	20.869640
261.267700	1292.805298	5017.804199	2070.708252	20.883307
261.645142	1295.235718	5103.686035	2090.065430	20.870161
262.022552	1294.805542	5155.219238	2102.324951	20.917952
262.399994	1293.084839	5181.330078	2108.239746	20.964596
262.777313	1296.268066	5170.166992	2103.292725	20.832363
263.154602	1296.010010	5093.103516	2082.989258	20.725832
263.531921	1295.536865	4939.601074	2050.727295	20.723850
263.909149	1293.988281	4691.892578	1997.774292	20.712355
264.286377	1290.611450	4405.685547	1937.380005	20.762541
264.663574	1287.385254	4147.826172	1882.168701	20.793419
265.040710	1289.364136	3970.470947	1845.605103	20.746691
265.417816	1288.245605	3871.103271	1823.839111	20.736469
265.794891	1288.611206	3844.691650	1816.203491	20.640675
266.171936	1288.976929	3865.167236	1817.816528	20.527969
266.548950	1289.170532	3915.560791	1822.139771	20.292843
266.925934	1287.621948	3973.847412	1830.463379	20.208334
267.302887	1286.912231	4037.941162	1839.690552	20.093513
267.679810	1286.202515	4101.884766	1848.035645	19.953712
268.056671	1288.869385	4178.711426	1862.381348	19.845789
268.433502	1289.901733	4260.613770	1875.458252	19.710983
268.810333	1290.138184	4344.064453	1890.750366	19.666885
269.187073	1288.159546	4420.568848	1904.880981	19.688406
269.563843	1291.127808	4495.244629	1916.387939	19.514275
269.940521	1290.525513	4550.649414	1925.830078	19.487129
270.317200	1290.826538	4602.333496	1932.411377	19.374409
270.693848	1291.837402	4668.664063	1948.478027	19.445494
271.070435	1295.063599	4802.809570	1972.825317	19.321857
271.447021	1298.569458	4975.347168	2005.453003	19.225626
271.823547	1300.892456	5153.003418	2038.360229	19.144510
272.200043	1301.236450	5297.623535	2065.761475	19.130404
272.576538	1301.731201	5417.380371	2091.743164	19.195318
272.952972	1303.602417	5524.404297	2112.756592	19.170628
273.329346	1305.452026	5626.266602	2131.167480	19.110180
273.705688	1305.495117	5704.082520	2144.997070	19.085718
274.082062	1306.118896	5763.487793	2156.611328	19.080593
274.458344	1304.914429	5788.759766	2162.504639	19.126223
274.834595	1307.861206	5770.413574	2156.525146	19.017456
275.210846	1304.936035	5690.102051	2141.060791	19.067118
275.587006	1301.774292	5586.046387	2121.875977	19.142149
275.963165	1300.913818	5493.390137	2105.185547	19.183691
276.339294	1300.182495	5446.760742	2096.517822	19.204638
276.715393	1300.763184	5423.337891	2086.645752	19.062906
277.091461	1301.064331	5414.713867	2083.204346	19.013288
277.467438	1302.591553	5411.982422	2080.967529	18.941397
277.843445	1302.526978	5416.176270	2082.193604	18.953161
278.219452	1303.602417	5431.188965	2082.021240	18.858934
278.595337	1304.226196	5454.288574	2084.387207	18.798777
278.971191	1304.570313	5486.980957	2087.183350	18.712009
279.347046	1307.344849	5512.983887	2093.399170	18.690485
279.722870	1309.753784	5537.567871	2097.700928	18.637224
280.098663	1310.377441	5561.312988	2099.507568	18.563681
280.474396	1310.979614	5597.123535	2105.034912	18.526100
280.850098	1312.055054	5649.495605	2114.326416	18.496424
281.225800	1313.108887	5724.945801	2125.682617	18.418036
281.601440	1313.517578	5833.131348	2145.255371	18.402851
281.977051	1313.797119	5982.203613	2167.645020	18.289923
282.352600	1314.700439	6137.964355	2198.917725	18.332344
282.728149	1317.496582	6282.090332	2224.124756	18.261881
283.103668	1317.475098	6392.448242	2245.761963	18.291464
283.479156	1319.604370	6480.501953	2257.268555	18.168627
283.854553	1319.668945	6564.039551	2270.410400	18.128799
284.229950	1320.851929	6661.018555	2288.347900	18.117336
284.605347	1322.895142	6765.247070	2304.371582	18.034050
284.980652	1320.787354	6863.861328	2323.341797	18.086615
285.355988	1320.916382	6953.184570	2343.387207	18.153803
285.731201	1319.260254	7031.666992	2357.689941	18.178497
286.106445	1319.776489	7098.621582	2373.498291	18.234123
286.481659	1320.228027	7166.027832	2383.392090	18.186802
286.856781	1320.464722	7232.853516	2395.243164	18.178413
287.231934	1318.894653	7298.947266	2406.965088	18.194998
287.607025	1316.464233	7346.716797	2419.116943	18.285349
287.982056	1316.894409	7365.557617	2420.256836	18.241426
288.357086	1315.732910	7357.599609	2417.976807	18.243433
288.732086	1311.667969	7326.048340	2413.868896	18.326094
289.107025	1310.850708	7290.688965	2405.867920	18.311819
289.481934	1310.571045	7261.221680	2398.899414	18.289234
289.856842	1311.818359	7236.639160	2391.457520	18.222309
290.231659	1311.022583	7237.713867	2388.532471	18.180632
290.606506	1311.689331	7248.296387	2390.403809	18.170555
290.981262	1312.184082	7264.535645	2395.522705	18.200178
291.355988	1309.947144	7285.590820	2399.501709	18.233259
291.730713	1311.646362	7312.411133	2404.857178	18.217859
292.105377	1310.377319	7339.360840	2411.309570	18.260662
292.480011	1310.484985	7357.492188	2418.192139	18.318270
292.854614	1312.549683	7364.181152	2424.257568	18.370384
293.229187	1313.861694	7380.162109	2435.570557	18.490824
293.603729	1313.517578	7405.820801	2446.001953	18.588772
293.978241	1312.506714	7443.051270	2468.714600	18.859791
294.352692	1314.033691	7473.033203	2490.287109	19.098125
294.727081	1313.603638	7494.950195	2507.923584	19.321356
295.101501	1311.560425	7516.952637	2534.550781	19.708511
295.475830	1314.722168	7571.195801	2565.737549	19.995535
295.850189	1317.367676	7669.617676	2607.979248	20.317392
296.224457	1320.572266	7832.454590	2665.642090	20.655622
296.598694	1323.067261	8046.718262	2736.403320	21.020367
296.972931	1324.938354	8301.458984	2813.574463	21.337801
297.347107	1326.938599	8538.541016	2885.368164	21.610031
297.721283	1328.874390	8714.519531	2944.988770	21.881832
298.095367	1331.175781	8806.853516	2982.261963	22.086107
298.469452	1331.648926	8820.446289	3007.211182	22.374250
298.843475	1328.057129	8795.217773	3023.084229	22.699755
299.217529	1329.046387	8756.138672	3026.246094	22.851469
299.591492	1328.444214	8698.583984	3030.483398	23.093718
299.965424	1325.196533	8618.014648	3025.988037	23.321457
300.339325	1323.841553	8485.374023	3009.426758	23.536655
300.713196	1320.120605	8301.758789	2974.153564	23.691187
301.087036	1318.830078	8080.785645	2931.632080	23.851118
301.460815	1318.313965	7865.405762	2893.283447	24.056017
301.834564	1318.830200	7684.758301	2865.602539	24.297672
302.208282	1315.969482	7537.729980	2841.169189	24.513956
302.582001	1314.270386	7416.811035	2817.725586	24.636545
302.955658	1316.012573	7311.185547	2798.239258	24.723669
303.329254	1312.506714	7221.174805	2779.742432	24.831921
303.702820	1310.958130	7142.068359	2763.417969	24.908804
304.076416	1310.807495	7075.995117	2749.265625	24.950760
304.449921	1307.430786	7021.515137	2740.318115	25.076412
304.823395	1309.603027	6969.917480	2738.296631	25.240534
305.196838	1308.527588	6920.384277	2731.435547	25.355389
305.570251	1308.183594	6865.559570	2721.541504	25.432110
305.943604	1304.828369	6805.509766	2707.711914	25.503813
306.316986	1304.312256	6761.246582	2701.861572	25.610519
306.690277	1306.420044	6728.404297	2695.495361	25.619316
307.063507	1305.581177	6712.079590	2695.387695	25.706223
307.436768	1305.989746	6721.134277	2703.776123	25.812540
307.809937	1307.258789	6748.900391	2715.970947	25.887632
308.183136	1308.011597	6803.165527	2736.059570	25.987408
308.556244	1310.054810	6877.411133	2758.492432	26.016613
308.929321	1309.172974	6967.895508	2784.129883	26.065191
309.302399	1310.226929	7060.530762	2812.972168	26.133320
309.675446	1309.043945	7157.489258	2842.352295	26.217367
310.048401	1308.054565	7253.113770	2870.915039	26.288393
310.421356	1309.237427	7348.910645	2897.541748	26.297852
310.794281	1307.839355	7451.095215	2934.363525	26.476582
311.167145	1308.248047	7564.163574	2966.625488	26.508949
311.539978	1312.119507	7661.917480	2997.618652	26.544138
311.912781	1313.324097	7733.152832	3019.492432	26.576540
312.285553	1312.012207	7749.498047	3026.977295	26.640293
312.658295	1312.399292	7722.591797	3020.890625	26.652731
313.031006	1312.227295	7670.456055	3009.642090	26.696348
313.403656	1311.839966	7615.524902	2997.489990	26.740707
313.776276	1313.603638	7565.497070	2986.155273	26.752722
314.148865	1316.313599	7539.773438	2980.283447	26.737055
314.521454	1316.442627	7537.837402	2984.090088	26.805042
314.893982	1316.958862	7538.117188	2980.885742	26.746256
315.266449	1319.109619	7502.563965	2973.271729	26.751425
315.638885	1316.851440	7438.685547	2954.322998	26.748056
316.011322	1317.281494	7355.319824	2931.287842	26.730642
316.383667	1318.270752	7282.773438	2910.425049	26.693830
316.756042	1318.722534	7224.507813	2894.767334	26.686457
317.128326	1319.754883	7172.802734	2879.001709	26.639912
317.500610	1316.872803	7118.904297	2865.838867	26.696962
317.872833	1315.517700	7058.530762	2850.353271	26.725266
318.245087	1312.592651	6980.606445	2830.028076	26.771908
318.617218	1311.775391	6885.283203	2804.842285	26.788639
318.989319	1309.839722	6806.929199	2779.828369	26.741219
319.361420	1307.043823	6756.320801	2765.912598	26.771786
319.733490	1306.484497	6723.543457	2758.729004	26.808725
320.105530	1303.193726	6701.368652	2750.147461	26.804499
320.477509	1298.741699	6679.085938	2744.877930	26.878136
320.849457	1295.622925	6653.877930	2737.565186	26.910669
321.221375	1294.181763	6644.543945	2733.758057	26.906145
321.593231	1295.364746	6637.381348	2730.704102	26.868868
321.965088	1295.988525	6641.230957	2728.424072	26.798328
322.336884	1297.451050	6650.199707	2728.574707	26.736238
322.708618	1298.461914	6680.289551	2731.994385	26.636536
323.080414	1300.526733	6712.143555	2741.522461	26.627823
323.452118	1301.537598	6778.215820	2761.998291	26.666906
323.823761	1302.053833	6891.305176	2786.990479	26.567719
324.195343	1303.752930	7021.881348	2821.016357	26.534266
324.566925	1308.140503	7158.586426	2852.869873	26.403618
324.938507	1310.484863	7291.462891	2886.164307	26.344847
325.310059	1310.893677	7398.078125	2913.049316	26.320143
325.681519	1313.496216	7515.812988	2940.127930	26.226194
326.052948	1312.979980	7614.276855	2965.249512	26.221104
326.424408	1312.786377	7704.826172	2987.617432	26.201824
326.795776	1312.786255	7749.067383	2997.769531	26.179453
327.167084	1309.667603	7759.735840	2995.833740	26.141834
327.538391	1308.957886	7717.257813	2978.778076	26.057148
327.909668	1310.183716	7621.181641	2955.613525	26.072418
328.280884	1310.743042	7526.180176	2930.707275	26.063560
328.652100	1311.216187	7433.007324	2906.446289	26.058226
329.023254	1311.689331	7353.792480	2883.088379	26.007484
329.394348	1310.377441	7294.752930	2862.118164	25.929869
329.765442	1308.334106	7218.937500	2838.093506	25.881611
330.136475	1307.710449	7146.906738	2817.209229	25.851139
330.507538	1307.065308	7068.682617	2793.356934	25.796431
330.878479	1305.237061	7011.600098	2777.247559	25.795948
331.249420	1306.183472	6968.970703	2768.945557	25.831133
331.620331	1307.000732	6957.249512	2765.547119	25.813843
331.991211	1306.032837	6973.101074	2766.364258	25.768728
332.362030	1306.054321	6997.232910	2767.805420	25.684505
332.732819	1303.387329	7032.440918	2775.806396	25.700912
333.103577	1303.451782	7069.478027	2787.743164	25.742016
333.474304	1304.312256	7093.954590	2798.217773	25.803070
333.845001	1305.193970	7117.806641	2808.111328	25.856140
334.215668	1306.075806	7138.390625	2815.897461	25.887177
334.586273	1307.280396	7167.339355	2825.769531	25.912523
334.956818	1307.753540	7190.611328	2835.598633	25.971138
335.327362	1309.108521	7225.347168	2846.030029	25.978018
335.697876	1309.818237	7243.090820	2848.331543	25.930265
336.068329	1310.441895	7256.706055	2849.664795	25.885546
336.438751	1310.312988	7261.888672	2852.353271	25.909782
336.809174	1313.345581	7257.523438	2854.590088	25.928640
337.179504	1315.646973	7261.846680	2857.450684	25.929228
337.549896	1316.485840	7286.837891	2861.193115	25.872969
337.920135	1315.797607	7324.413574	2870.785645	25.879303
338.290375	1315.668457	7372.655762	2880.055664	25.827810
338.660614	1316.980347	7418.403320	2891.605469	25.807507
339.030792	1318.636475	7470.968262	2900.574463	25.712818
339.400940	1318.249390	7504.671875	2908.360352	25.703239
339.771027	1317.582642	7537.944824	2921.286865	25.781525
340.141083	1319.088257	7578.401367	2936.665039	25.842720
340.511139	1319.712036	7612.470215	2946.795410	25.856441
340.881134	1318.528931	7659.206543	2956.000977	25.824875
341.251068	1318.141846	7686.134766	2961.571289	25.807652
341.621002	1319.733276	7708.438965	2968.905518	25.813871
341.990875	1323.131714	7728.937012	2969.830322	25.706348
342.360718	1325.304077	7735.474609	2970.260742	25.661669
342.730560	1324.400757	7744.852051	2972.454346	25.668812
343.100311	1326.293457	7763.907715	2978.347656	25.662523
343.470032	1328.272217	7813.010742	2990.327393	25.630259
343.839752	1330.057373	7885.707520	3005.146729	25.551842
344.209442	1330.982178	7960.534180	3023.127197	25.524275
344.579041	1331.993042	8052.932617	3045.301758	25.492102
344.948639	1334.509521	8144.105957	3070.660156	25.495646
345.318176	1334.853516	8244.891602	3095.566406	25.480509
345.687714	1334.552368	8335.805664	3119.526367	25.495064
346.057190	1333.756592	8412.267578	3143.464600	25.566225
346.426636	1331.971558	8482.621094	3162.090576	25.593746
346.796051	1332.552246	8530.927734	3176.629883	25.617970
347.165405	1330.508911	8543.187500	3182.674072	25.679296
347.534729	1331.261719	8527.056641	3177.511719	25.657347
347.904083	1331.498291	8478.491211	3166.628906	25.676960
348.273315	1331.261597	8410.589844	3147.250000	25.651989
348.642517	1330.874512	8338.624023	3130.839600	25.685352
349.011719	1329.304443	8267.605469	3111.740479	25.689806
349.380890	1329.691528	8203.016602	3097.200928	25.715492
349.749969	1329.261475	8157.311035	3088.554688	25.765676
350.119049	1329.390503	8122.855957	3080.790527	25.780657
350.488098	1330.616577	8108.423828	3081.220215	25.828466
350.857117	1329.541138	8104.294922	3079.242188	25.826784
351.226074	1331.283325	8127.136230	3079.693604	25.727606
351.595001	1330.100464	8150.601563	3086.231934	25.747837
351.963867	1329.304565	8194.585938	3098.383789	25.768488
352.332764	1331.240234	8246.764648	3112.514648	25.757618
352.701538	1330.745605	8309.115234	3127.376709	25.745714
353.070343	1332.810303	8385.533203	3148.432861	25.743570
353.439056	1333.756714	8478.707031	3171.231445	25.717110
353.807770	1335.348267	8577.084961	3192.331055	25.642782
354.176453	1337.864746	8670.364258	3217.237305	25.630722
354.545105	1340.381226	8772.077148	3239.433594	25.553419
354.913666	1344.833374	8899.576172	3273.416260	25.528109
355.282227	1346.661621	9039.055664	3314.045166	25.575699
355.650757	1349.651245	9191.590820	3355.017822	25.572329
356.019226	1352.554688	9350.427734	3396.807861	25.559959
356.387695	1353.350586	9525.352539	3442.899902	25.569614
356.756104	1359.179199	9727.140625	3499.895996	25.582298
357.124451	1362.641968	9968.611328	3564.936523	25.590311
357.492828	1364.685181	10213.868164	3633.224121	25.635578
357.861084	1369.115845	10435.530273	3694.844727	25.652138
358.229401	1372.191528	10625.790039	3745.646973	25.649000
358.597595	1372.944458	10758.193359	3786.899414	25.720736
358.965759	1374.062866	10865.517578	3816.860107	25.736805
359.333923	1377.073975	10958.734375	3840.475830	25.709551
359.702057	1379.246216	11091.374023	3871.576660	25.662045
360.070129	1382.429565	11249.199219	3913.710938	25.654610
360.438141	1384.451172	11443.826172	3969.416504	25.697077
360.806122	1385.612671	11654.196289	4027.509521	25.727959
361.174133	1389.699219	11906.572266	4093.518066	25.709341
361.542053	1394.022339	12192.563477	4169.592285	25.703194
361.909912	1397.442139	12476.599609	4248.118164	25.730080
362.277771	1399.184204	12736.912109	4321.202637	25.772524
362.645599	1402.862061	12921.149414	4370.283691	25.762699
363.013367	1404.152588	13021.571289	4393.081543	25.727995
363.381134	1404.346191	13047.337891	4402.395020	25.749813
363.748810	1400.732788	12986.578125	4397.039063	25.861782
364.116455	1398.990601	12855.375977	4366.497559	25.902645
364.484100	1396.818237	12650.535156	4313.243652	25.915218
364.851715	1394.904053	12370.671875	4240.159668	25.923067
365.219238	1388.322510	11973.160156	4135.265137	25.951674
365.586761	1382.493896	11498.027344	4011.249268	25.987314
365.954224	1378.321289	11039.109375	3884.889893	25.945799
366.321686	1372.342041	10633.854492	3772.983643	25.920622
366.689117	1367.481323	10359.626953	3696.802246	25.903950
367.056458	1363.287231	10173.711914	3651.484619	25.971476
367.423737	1361.437500	10042.621094	3616.878662	25.980803
367.791077	1363.050659	9931.187500	3584.508789	25.926968
368.158295	1360.985840	9845.670898	3559.731445	25.914286
368.525543	1359.157593	9765.295898	3536.524414	25.902103
368.892700	1357.910156	9695.201172	3515.295898	25.876339
369.259827	1353.995728	9637.989258	3499.917725	25.904438
369.626953	1353.866699	9598.737305	3489.271240	25.899794
369.994019	1351.758911	9565.443359	3477.549072	25.881077
370.361053	1352.275146	9548.214844	3469.590820	25.833715
370.728027	1352.189087	9533.718750	3469.247070	25.876066
371.094971	1351.780396	9534.988281	3469.354492	25.877068
371.461914	1352.769775	9558.130859	3476.882568	25.886889
371.828796	1351.737427	9594.414063	3485.679443	25.888943
372.195618	1350.339355	9626.719727	3495.745117	25.922028
372.562408	1351.974121	9658.831055	3504.584961	25.913660
372.929199	1351.586792	9693.179688	3511.037354	25.887751
373.295898	1355.501343	9733.291992	3521.103027	25.849314
373.662598	1356.060547	9780.587891	3530.781494	25.814159
374.029236	1356.576660	9817.689453	3546.590088	25.883278
374.395844	1356.877808	9856.899414	3561.323242	25.934586
374.762421	1355.823853	9897.225586	3568.420898	25.904381
375.128967	1357.114380	9936.629883	3581.454590	25.926176
375.495483	1354.533447	9986.249023	3593.993896	25.944557
375.861908	1355.931519	10070.731445	3614.727539	25.919079
376.228333	1357.974731	10203.887695	3643.720459	25.839567
376.594727	1358.942505	10389.137695	3695.081787	25.870306
376.961090	1361.545044	10614.305664	3760.078857	25.922358
377.327393	1363.480713	10855.839844	3827.785889	25.960934
377.693665	1365.072388	11066.941406	3887.686035	26.001318
378.059906	1364.427246	11233.047852	3933.756104	26.035337
378.426086	1365.932739	11330.974609	3962.296875	26.054726
378.792267	1369.825684	11394.444336	3980.278076	26.040415
379.158386	1371.030151	11416.447266	3986.945557	26.040886
379.524445	1369.976318	11407.844727	3985.052979	26.052113
379.890503	1369.309448	11373.172852	3975.718750	26.054026
380.256531	1369.072998	11302.153320	3960.146973	26.085302
380.622467	1364.900513	11182.784180	3926.529541	26.091457
380.988403	1360.878418	11019.000977	3882.825195	26.112183
381.354279	1356.146606	10836.203125	3833.292236	26.130072
381.720154	1352.726807	10673.344727	3788.641602	26.134691
382.085968	1351.909424	10543.047852	3751.711914	26.109959
382.451752	1349.995239	10486.180664	3736.075928	26.116814
382.817474	1345.026855	10469.597656	3734.010742	26.181879
383.183197	1343.693359	10503.063477	3741.818115	26.182201
383.548859	1345.500000	10561.652344	3759.132568	26.189157
383.914490	1344.467651	10627.725586	3776.252930	26.195385
384.280060	1345.672119	10690.206055	3795.760742	26.219484
384.645599	1349.844727	10754.623047	3812.622803	26.186455
385.011108	1351.522339	10825.126953	3830.840088	26.170797
385.376617	1353.823730	10908.878906	3851.896973	26.143997
385.742035	1354.684082	11003.621094	3875.297607	26.123224
386.107452	1356.727417	11107.333984	3905.365723	26.138252
386.472778	1357.028442	11198.656250	3931.154053	26.155485
386.838135	1359.932007	11293.549805	3958.296875	26.157284
387.203430	1361.437622	11367.687500	3978.385254	26.153131
387.568634	1361.286987	11435.739258	3997.269287	26.165020
387.933838	1362.233276	11474.819336	4012.389648	26.206514
388.299042	1361.329956	11511.188477	4019.315430	26.187412
388.664124	1358.791992	11539.451172	4027.660156	26.215082
389.029236	1358.705933	11556.485352	4033.553223	26.229702
389.394318	1358.598511	11564.163086	4036.349365	26.238146
389.759308	1359.050049	11561.776367	4037.769287	26.254934
390.124298	1359.931885	11585.113281	4042.823486	26.238083
390.489227	1360.405151	11632.730469	4055.470215	26.236172
390.854126	1363.179688	11712.761719	4074.870117	26.200966
391.218964	1363.287231	11838.283203	4113.649414	26.256453
391.583771	1363.588379	11981.677734	4151.675781	26.257900
391.948578	1364.190552	12133.137695	4189.573242	26.236389
392.313354	1365.201538	12250.250000	4224.996582	26.272688
392.678040	1366.061890	12350.002930	4255.237305	26.303629
393.042694	1366.363037	12448.102539	4274.637207	26.243843
393.407349	1366.793091	12559.469727	4304.318359	26.245066
393.771942	1366.276855	12693.099609	4335.913574	26.217739
394.136505	1365.739136	12809.715820	4370.305176	26.254562
394.501007	1365.158325	12885.081055	4390.307617	26.260153
394.865479	1362.362427	12878.089844	4394.587402	26.331163
395.229919	1360.469604	12786.056641	4368.154297	26.324114
395.594360	1360.104004	12648.211914	4333.246582	26.338717
395.958710	1358.168213	12487.438477	4292.489258	26.365799
396.323029	1359.523315	12344.819336	4252.118652	26.331518
396.687286	1358.146729	12222.093750	4217.727051	26.321743
397.051544	1360.039551	12111.457031	4195.595703	26.373787
397.415771	1359.179199	11980.452148	4162.967773	26.397858
397.779938	1358.318726	11827.401367	4131.759766	26.491728
398.144043	1355.673340	11671.833984	4086.226807	26.468700
398.508148	1356.469116	11518.610352	4046.630615	26.472389
398.872192	1356.189575	11394.616211	4009.443115	26.430969
399.236237	1355.350830	11314.026367	3984.149902	26.397074
399.600189	1356.189575	11257.115234	3964.749023	26.346622
399.964111	1356.856323	11216.551758	3957.393555	26.375431
400.328003	1354.425903	11190.957031	3951.521973	26.402561
400.691925	1356.275635	11172.675781	3947.306396	26.394917
401.055695	1353.866699	11166.674805	3940.853760	26.363371
401.419495	1353.544067	11164.954102	3939.735352	26.359018
401.783234	1353.888184	11182.396484	3939.176025	26.303970
402.146942	1355.823853	11181.772461	3940.252197	26.302074
402.510620	1354.533325	11216.336914	3944.768555	26.265331
402.874237	1354.339844	11263.202148	3957.307617	26.269089
403.237823	1355.866943	11339.016602	3975.955322	26.245108
403.601379	1355.888428	11444.148438	4005.894287	26.268215
403.964874	1355.372192	11595.048828	4039.231445	26.210392
404.328369	1356.146484	11759.886719	4085.258789	26.232031
404.691772	1357.630615	11933.800781	4131.845215	26.230806
405.055176	1357.501465	12084.485352	4174.710449	26.262823
405.418549	1358.426392	12229.471680	4217.038574	26.295654
405.781860	1359.200684	12337.485352	4246.354004	26.298763
406.145142	1360.426636	12448.811523	4273.476074	26.271177
406.508362	1362.254761	12518.819336	4296.682617	26.302252
406.871552	1361.136353	12561.362305	4308.963867	26.319359
407.234741	1361.867554	12562.030273	4315.351563	26.370008
407.597870	1360.792236	12520.647461	4305.759277	26.388935
407.960938	1362.340820	12456.339844	4293.908203	26.424803
408.323975	1362.663574	12370.886719	4270.485840	26.415003
408.686981	1360.727783	12293.264648	4248.935059	26.418453
409.049957	1361.416016	12241.559570	4237.879395	26.437735
409.412903	1363.007690	12215.985352	4230.846680	26.424442
409.775787	1364.405762	12229.450195	4239.449707	26.461409
410.138611	1363.459351	12273.197266	4257.667480	26.528666
410.501434	1364.298218	12328.452148	4273.583496	26.534515
410.864227	1366.771606	12373.488281	4288.230469	26.542511
411.226929	1367.717896	12423.409180	4295.371094	26.480961
411.589630	1369.524536	12473.394531	4306.748535	26.452255
411.952271	1370.793457	12497.547852	4311.351074	26.427813
412.314911	1371.116089	12522.303711	4318.341797	26.429701
412.677490	1370.599976	12536.693359	4320.298828	26.416569
413.040009	1373.675659	12560.458984	4324.471191	26.377516
413.402496	1372.557129	12553.318359	4321.202148	26.372488
413.764984	1368.427612	12534.865234	4313.523438	26.374533
414.127380	1367.889893	12502.602539	4307.845703	26.403517
414.489777	1366.900635	12490.407227	4304.640625	26.410196
414.852112	1367.459839	12512.194336	4307.501465	26.380543
415.214386	1366.276855	12548.994141	4321.245117	26.424421
415.576660	1366.018799	12629.650391	4350.388672	26.495626
415.938904	1364.233643	12746.977539	4382.048828	26.512194
416.301086	1366.900635	12896.694336	4428.398438	26.552927
416.663208	1370.793579	13069.619141	4479.738281	26.574846
417.025299	1371.159180	13253.083984	4531.551270	26.598318
417.387390	1373.374512	13469.753906	4595.838379	26.639906
417.749420	1380.472168	13732.582031	4675.289063	26.674124
418.111389	1384.580200	14027.824219	4754.869141	26.656837
418.473328	1387.720337	14356.853516	4848.536133	26.685022
418.835266	1391.333740	14718.684570	4954.162109	26.733208
419.197144	1397.441895	15121.508789	5068.068848	26.745914
419.558960	1401.292114	15548.528320	5186.255859	26.754087
419.920746	1408.045532	16017.491211	5322.982422	26.797300
420.282471	1412.325562	16561.236328	5472.592285	26.802366
420.644226	1418.304810	17156.554688	5641.322754	26.832830
421.005920	1422.219238	17755.876953	5814.483887	26.890881
421.367523	1427.273682	18320.054688	5975.665527	26.925060
421.729126	1429.531860	18822.029297	6112.563965	26.925587
422.090668	1432.177490	19260.212891	6239.612305	26.965588
422.452179	1434.156128	19616.773438	6343.925293	27.002542
422.813660	1435.876831	19942.878906	6436.259766	27.018869
423.175110	1438.242676	20241.583984	6529.174805	27.074614
423.536469	1438.930908	20520.156250	6609.915527	27.099855
423.897858	1439.425659	20782.404297	6684.097168	27.114084
424.259155	1439.124512	20923.882813	6731.671875	27.162500
424.620453	1437.791016	20975.201172	6753.718750	27.208969
424.981689	1438.092163	20959.500000	6752.901367	27.225542
425.342865	1438.715942	20913.107422	6741.846680	27.231306
425.704041	1441.017334	20834.367188	6727.737305	27.260477
426.065186	1441.318359	20749.023438	6707.842285	27.276798
426.426239	1441.447388	20644.773438	6680.656250	27.282820
426.787262	1439.941895	20466.019531	6641.037598	27.336668
427.148254	1437.102783	20225.689453	6578.793945	27.366037
427.509216	1434.994995	19907.519531	6492.395508	27.377958
427.870178	1432.973145	19504.158203	6381.457520	27.383286
428.231049	1430.155762	19086.945313	6272.562500	27.425182
428.591858	1426.585327	18670.699219	6160.871582	27.454506
428.952698	1421.509399	18269.832031	6053.029785	27.489506
429.313446	1416.842163	17885.699219	5947.833984	27.512484
429.674164	1412.239380	17541.742188	5852.187988	27.526878
430.034851	1408.862793	17206.625000	5765.187988	27.575584
430.395477	1408.174561	16918.267578	5689.393555	27.602793
430.756104	1406.539917	16688.412109	5627.622559	27.621502
431.116699	1404.991333	16488.386719	5572.604980	27.630474
431.477203	1406.174316	16316.538086	5534.513672	27.687717
431.837646	1405.937744	16210.290039	5519.006836	27.782839
432.198090	1405.442993	16155.550781	5505.284668	27.795336
432.558502	1405.980713	16141.225586	5504.037109	27.811255
432.918884	1408.196045	16152.410156	5515.823242	27.859247
433.279205	1407.335693	16212.224609	5539.374512	27.909964
433.639465	1406.496948	16264.639648	5561.678711	27.965687
433.999756	1405.593628	16348.177734	5589.359375	27.998943
434.359924	1404.410645	16430.123047	5621.556641	28.066196
434.720093	1404.518188	16499.076172	5650.355957	28.128269
435.080200	1403.464355	16569.537109	5677.262695	28.179995
435.440277	1401.679077	16644.814453	5705.115723	28.231964
435.800354	1398.495972	16696.929688	5729.957520	28.313105
436.160370	1396.302124	16723.988281	5744.001953	28.365009
436.520325	1393.333984	16741.214844	5757.121582	28.432508
436.880249	1391.785278	16744.398438	5761.036133	28.459332
437.240112	1393.635010	16742.140625	5770.112793	28.514030
437.599976	1393.355347	16763.734375	5791.599121	28.615063
437.959808	1397.248413	16810.578125	5815.387207	28.664400
438.319519	1396.538574	16871.531250	5837.260742	28.696119
438.679260	1397.011841	16968.898438	5872.060547	28.738001
439.038940	1398.001221	17101.580078	5917.873047	28.782433
439.398590	1401.313354	17284.636719	5981.386230	28.835733
439.758179	1403.593384	17510.082031	6055.093750	28.879669
440.117767	1407.679810	17808.658203	6147.234375	28.897999
440.477295	1412.691284	18135.470703	6254.301758	28.952187
440.836792	1416.992798	18487.625000	6374.402832	29.040577
441.196198	1416.627075	18806.761719	6476.953125	29.098833
441.555603	1421.165405	19081.398438	6564.985840	29.126572
441.914978	1420.154419	19270.431641	6632.973145	29.203012
442.274323	1422.004272	19408.857422	6692.034180	29.299343
442.633575	1425.854004	19502.654297	6732.598145	29.356655
442.992859	1430.349365	19538.033203	6758.966797	29.427382
443.352051	1429.618042	19510.417969	6758.342285	29.471725
443.711182	1431.231201	19432.322266	6749.072266	29.541769
444.070313	1430.263306	19310.414063	6730.920410	29.645485
444.429382	1427.660767	19152.394531	6696.937500	29.728382
444.788452	1426.649902	19016.162109	6667.041016	29.792704
445.147430	1428.886719	18932.904297	6656.889160	29.867443
445.506409	1427.617676	18915.289063	6666.696777	29.958700
445.865295	1427.380981	18997.214844	6702.078125	30.021326
446.224182	1430.048096	19166.203125	6770.172363	30.108692
446.583038	1428.607056	19404.511719	6853.923828	30.181051
446.941833	1427.725220	19672.609375	6948.322266	30.258329
447.300598	1428.564087	19946.794922	7049.173828	30.351765
447.659302	1429.467529	20195.962891	7134.109375	30.398012
448.018005	1432.112915	20390.330078	7211.646484	30.485640
448.376648	1434.435913	20546.457031	7270.514160	30.536163
448.735229	1433.812256	20616.380859	7309.120605	30.628372
449.093781	1430.155762	20626.341797	7325.811035	30.712639
449.452301	1426.327271	20563.126953	7319.594238	30.795469
449.810791	1426.456299	20426.488281	7295.850098	30.891495
450.169220	1422.499023	20185.425781	7231.067383	30.957689
450.527618	1420.004028	19889.474609	7154.779297	31.050026
450.885956	1415.831421	19574.554688	7075.866699	31.169786
451.244263	1413.293457	19276.238281	7002.846680	31.291330
451.602539	1410.927612	19023.753906	6940.559570	31.395483
451.960785	1408.432617	18834.052734	6890.058105	31.457275
452.318970	1408.174561	18676.830078	6866.462891	31.608065
452.677124	1405.507568	18535.242188	6839.836426	31.724539
453.035248	1404.324585	18393.332031	6816.242188	31.855406
453.393311	1406.131226	18235.076172	6789.400391	31.988155
453.751312	1404.216919	18067.550781	6750.943848	32.086777
454.109314	1406.432251	17921.660156	6721.370605	32.182045
454.467285	1404.862183	17778.740234	6692.979492	32.296059
454.825195	1404.432129	17644.810547	6666.674805	32.402218
455.183044	1402.474854	17489.566406	6631.487793	32.504398
455.540894	1400.797363	17304.662109	6590.666016	32.632751
455.898651	1399.248535	17107.042969	6553.328125	32.812241
456.256378	1395.871948	16915.341797	6504.914063	32.920208
456.614105	1394.301758	16754.355469	6471.984375	33.057713
456.971771	1392.602661	16626.273438	6452.670410	33.216339
457.329407	1389.247437	16578.355469	6447.315430	33.300625
457.686981	1388.881836	16595.927734	6476.522949	33.455814
458.044525	1384.881348	16716.048828	6537.541016	33.609047
458.402008	1386.731079	16913.148438	6627.767090	33.755608
458.759460	1390.258301	17222.691406	6754.170410	33.879265
459.116913	1395.850464	17682.341797	6932.665527	33.996365
459.474274	1400.883301	18285.017578	7161.554199	34.118839
459.831635	1406.840942	18900.771484	7395.754883	34.234241
460.188904	1411.508301	19491.898438	7623.438965	34.357281
460.546173	1418.562866	19993.939453	7821.484863	34.469944
460.903381	1425.251831	20382.978516	7980.709473	34.579346
461.260559	1430.177246	20662.236328	8111.929688	34.742783
461.617706	1433.424927	20856.863281	8209.059570	34.883808
461.974762	1433.037842	20902.890625	8258.852539	35.058376
462.331848	1433.016357	20853.939453	8268.186523	35.194874
462.688843	1426.671509	20652.968750	8229.170898	35.381226
463.045837	1421.208374	20278.253906	8135.373047	35.605602
463.402740	1416.068115	19744.960938	7979.418945	35.808769
463.759613	1410.131836	19186.871094	7810.129395	36.002090
464.116486	1404.905396	18641.621094	7650.431152	36.233852
464.473267	1399.055176	18194.984375	7522.308105	36.456768
464.830048	1397.205444	17837.132813	7423.521973	36.656586
465.186737	1396.474243	17553.250000	7348.845703	36.841335
465.543457	1391.742432	17325.523438	7297.140625	37.062130
465.900085	1392.796265	17206.626953	7283.203125	37.248447
466.256683	1391.161621	17162.019531	7304.539063	37.495598
466.613251	1393.592041	17192.710938	7349.857422	37.699986
466.969757	1393.721069	17282.013672	7409.477051	37.862820
467.326233	1393.893066	17380.392578	7482.390137	38.085239
467.682678	1394.430908	17445.085938	7549.236328	38.346134
468.039093	1393.979248	17487.242188	7597.414551	38.546787
468.395416	1392.366089	17481.046875	7638.387695	38.822460
468.751740	1390.365723	17475.798828	7672.929199	39.057472
469.108032	1387.333130	17453.904297	7703.062012	39.309750
469.464233	1386.924561	17425.257813	7729.688965	39.547531
469.820435	1387.462158	17371.595703	7748.508301	39.796001
470.176575	1388.903198	17264.826172	7746.788574	40.047344
470.532715	1390.709839	17116.185547	7724.785645	40.279072
470.888763	1389.871094	16959.392578	7702.502930	40.544804
471.244751	1389.957153	16821.849609	7689.812988	40.823612
471.600769	1388.838745	16735.945313	7691.577637	41.067928
471.956696	1391.419800	16686.154297	7720.827637	41.382919
472.312592	1395.119141	16715.039063	7772.919922	41.630772
472.668457	1394.172852	16788.876953	7849.510742	41.932198
473.024292	1395.613892	16909.494141	7941.478516	42.193604
473.380035	1399.872437	16996.687500	8029.962402	42.509254
473.735779	1402.711548	17086.396484	8113.736328	42.789848
474.091492	1400.130615	17172.923828	8195.553711	43.083195
474.447113	1398.689453	17280.419922	8297.372070	43.437851
474.802765	1400.238159	17379.853516	8397.470703	43.788490
475.158295	1401.227417	17497.501953	8500.107422	44.102627
475.513824	1401.205811	17608.527344	8603.969727	44.441422
475.869324	1400.495972	17745.513672	8725.640625	44.815765
476.224762	1399.420532	17873.398438	8838.836914	45.158592
476.580170	1401.743408	17999.607422	8960.314453	45.539425
476.935516	1402.668335	18130.783203	9088.050781	45.942905
477.290863	1401.721924	18340.294922	9250.844727	46.338753
477.646118	1399.807739	18551.289063	9419.274414	46.756702
478.001373	1403.163208	18806.695313	9611.405273	47.164234
478.356537	1404.561279	19087.570313	9805.106445	47.506306
478.711700	1408.927368	19371.455078	10006.529297	47.864098
479.066833	1412.863281	19646.175781	10210.468750	48.250175
479.421875	1416.003418	19939.740234	10432.690430	48.676399
479.776917	1418.713501	20251.736328	10657.493164	49.056271
480.131897	1422.756958	20583.023438	10899.802734	49.461975
480.486847	1425.187378	20960.789063	11168.781250	49.876087
480.841766	1427.617798	21395.488281	11480.863281	50.347107
481.196594	1431.403198	21904.089844	11819.550781	50.741493
481.551453	1438.608521	22567.785156	12244.829102	51.143597
481.906219	1446.028809	23387.111328	12765.602539	51.590775
482.260986	1455.320190	24480.345703	13443.535156	52.066021
482.615662	1465.364380	26038.882813	14387.782227	52.586765
482.970306	1480.312500	28242.232422	15732.574219	53.255753
483.324951	1502.057129	31073.486328	17524.064453	54.180702
483.679504	1528.103394	34178.042969	19634.044922	55.454746
484.034027	1552.192261	37240.316406	21742.736328	56.574966
484.388519	1577.485840	40007.261719	23591.978516	57.284985
484.742981	1599.682007	42335.035156	25104.230469	57.700615
485.097351	1615.727051	44198.640625	26327.218750	58.031471
485.451721	1625.018677	45581.304688	27274.992188	58.353367
485.806030	1633.750732	46583.941406	28000.716797	58.658184
486.160309	1640.482788	47246.304688	28537.642578	58.977474
486.514557	1645.494263	47545.160156	28898.205078	59.374531
486.868744	1646.569580	47432.246094	29010.304688	59.764835
487.222931	1643.171387	46820.234375	28759.199219	60.021671
487.577026	1636.890991	45926.082031	28216.355469	60.013435
487.931122	1628.933105	44990.953125	27642.886719	59.992485
488.285126	1619.964111	44104.308594	27171.476563	60.143360
488.639099	1612.952637	43301.371094	26819.044922	60.463058
488.993042	1607.553955	42603.714844	26554.560547	60.852055
489.346954	1604.542969	42024.195313	26341.501953	61.200325
489.700836	1601.617676	41487.574219	26169.826172	61.596138
490.054626	1597.423828	40928.410156	25989.994141	62.018711
490.408417	1590.670044	40378.378906	25788.294922	62.384777
490.762146	1584.217896	39816.289063	25598.720703	62.812454
491.115814	1583.056274	39386.949219	25505.632813	63.280720
491.469513	1578.711670	39061.570313	25478.039063	63.760685
491.823090	1576.281250	38661.800781	25399.773438	64.239334
492.176666	1572.173340	38210.628906	25266.570313	64.670837
492.530182	1567.678101	37734.078125	25117.757813	65.115913
492.883698	1562.967896	37229.519531	24931.970703	65.520782
493.237091	1558.687622	36680.738281	24722.654297	65.952774
493.590515	1550.321045	36093.078125	24453.220703	66.303047
493.943878	1543.266479	35411.636719	24118.664063	66.656288
494.297150	1537.846558	34507.351563	23634.777344	67.022339
494.650452	1529.049683	33330.281250	22957.361328	67.382019
495.003662	1512.875488	31807.943359	22025.181641	67.708405
495.356873	1500.314941	30131.712891	20986.558594	68.059006
495.710022	1487.066040	28584.187500	20020.267578	68.395462
496.063110	1476.828247	27306.437500	19262.152344	68.856339
496.416168	1468.074341	26367.935547	18720.041016	69.285393
496.769165	1463.084473	25714.408203	18368.212891	69.708069
497.122162	1457.449463	25311.005859	18181.544922	70.111542
497.475098	1456.632202	25029.080078	18083.273438	70.534218
497.828003	1456.223511	24893.019531	18079.595703	70.928520
498.180847	1454.029785	24823.205078	18119.279297	71.312958
498.533661	1454.416870	24769.218750	18166.337891	71.679451
498.886444	1453.621094	24713.750000	18222.085938	72.091026
499.239136	1451.964966	24632.236328	18252.261719	72.476707
499.591827	1449.900269	24482.648438	18227.937500	72.844269
499.944427	1449.039795	24238.423828	18126.031250	73.178772
500.297089	1446.007202	23928.687500	17976.765625	73.526634
500.649628	1444.630615	23578.921875	17794.119141	73.864975
501.002136	1440.371948	23203.154297	17588.783203	74.201958
501.354584	1437.532837	22852.552734	17404.953125	74.561783
501.707001	1434.156250	22491.947266	17204.906250	74.892708
502.059387	1432.005371	22181.478516	17046.220703	75.251144
502.411682	1429.747070	21899.015625	16908.888672	75.621368
502.764038	1429.531982	21673.394531	16806.705078	75.959679
503.116302	1429.575073	21490.425781	16727.986328	76.260025
503.468475	1428.370605	21362.968750	16689.916016	76.558075
503.820709	1427.445679	21297.326172	16697.896484	76.852257
504.172852	1427.768433	21260.976563	16714.179688	77.074821
504.524902	1425.101440	21239.255859	16754.076172	77.363762
504.876953	1428.177124	21248.654297	16802.791016	77.569344
505.228912	1427.918945	21261.386719	16861.080078	77.813728
505.580872	1427.553345	21280.679688	16919.601563	78.033287
505.932770	1426.391968	21267.861328	16957.886719	78.277954
506.284698	1425.209106	21266.160156	16979.781250	78.396301
506.636505	1425.660645	21272.806641	17022.128906	78.582924
506.988342	1423.789551	21269.794922	17061.445313	78.794983
507.340088	1424.671387	21276.398438	17111.281250	79.018867
507.691772	1424.456177	21279.777344	17146.251953	79.181778
508.043396	1423.681763	21298.380859	17212.755859	79.443085
508.395050	1425.337769	21345.074219	17291.259766	79.649254
508.746582	1426.262695	21429.212891	17399.144531	79.852631
509.098114	1426.929565	21563.166016	17529.914063	79.970177
509.449646	1429.446045	21709.593750	17681.976563	80.140099
509.801086	1431.080688	21892.970703	17851.416016	80.248383
510.152557	1433.403442	22072.626953	18035.267578	80.438416
510.503906	1433.640137	22255.166016	18211.115234	80.577545
510.855194	1437.210449	22443.490234	18382.298828	80.666771
511.206482	1438.801880	22627.857422	18552.060547	80.764610
511.557709	1440.243042	22821.171875	18742.773438	80.925064
511.908844	1445.340332	23011.128906	18920.730469	81.032928
512.260010	1446.136230	23173.730469	19078.019531	81.149727
512.611206	1446.588013	23288.087891	19203.607422	81.299454
512.962219	1449.663574	23368.722656	19295.574219	81.417320
513.313232	1450.394897	23425.783203	19366.507813	81.528084
513.664246	1450.932617	23455.679688	19402.855469	81.582047
514.015137	1450.760620	23457.228516	19412.642578	81.620926
514.366028	1453.728638	23439.097656	19415.351563	81.698074
514.716919	1452.115356	23387.007813	19395.308594	81.802055
515.067688	1450.416138	23307.533203	19350.376953	81.895340
515.418396	1449.555786	23222.382813	19291.164063	81.944382
515.769104	1448.136353	23144.609375	19243.289063	82.018646
516.119812	1450.093506	23090.453125	19200.273438	82.023499
516.470459	1450.050537	23097.982422	19216.531250	82.070107
516.821106	1450.824829	23162.376953	19279.142578	82.114433
517.171631	1453.126221	23358.894531	19446.257813	82.138786
517.522095	1457.212769	23642.285156	19690.138672	82.185562
517.872559	1461.062622	24070.144531	20061.431641	82.269455
518.222961	1464.977173	24575.886719	20479.248047	82.274002
518.573364	1469.493896	25124.449219	20935.068359	82.289627
518.923645	1476.312012	25645.048828	21368.906250	82.307129
519.273987	1481.818115	26105.107422	21760.675781	82.356415
519.624207	1483.925903	26452.355469	22050.753906	82.371330
519.974487	1483.646362	26733.636719	22295.882813	82.424728
520.324646	1484.850708	26895.742188	22433.144531	82.438248
520.674744	1483.000977	26977.429688	22500.550781	82.439774
521.024780	1481.710449	26911.783203	22453.619141	82.468925
521.374878	1480.419922	26728.537109	22321.710938	82.545921
521.724792	1477.086060	26432.779297	22070.904297	82.521523
522.074707	1472.505005	26056.068359	21769.769531	82.564369
522.424744	1468.870117	25661.351563	21436.937500	82.538315
522.774536	1464.095459	25332.281250	21157.267578	82.508041
523.124329	1462.159668	25042.888672	20923.710938	82.531593
523.474182	1458.589478	24903.343750	20800.964844	82.501930
523.823914	1461.815674	24869.898438	20765.498047	82.465881
524.173523	1463.321167	24982.623047	20841.419922	82.392319
524.523132	1467.084961	25229.251953	21057.447266	82.443504
524.872803	1469.020630	25632.398438	21394.693359	82.462280
525.222290	1474.118042	26245.767578	21894.283203	82.433609
525.571777	1480.118896	26965.470703	22490.550781	82.441208
525.921326	1488.958740	27765.914063	23150.353516	82.434952
526.270752	1495.389526	28603.373047	23850.095703	82.465401
526.620178	1505.949951	29496.150391	24601.287109	82.512222
526.969482	1513.800415	30569.894531	25483.136719	82.493317
527.318787	1527.286011	31845.470703	26544.449219	82.515373
527.668030	1539.803589	33489.312500	27938.880859	82.627487
528.017212	1559.289917	35522.765625	29735.341797	82.959862
528.366394	1579.442871	37770.765625	31731.220703	83.312172
528.715515	1603.768677	39934.906250	33688.218750	83.703362
529.064636	1620.781616	41741.433594	35300.378906	83.945786
529.413635	1635.256348	43115.664063	36504.375000	84.061661
529.762695	1642.827271	44061.628906	37318.324219	84.103027
530.111633	1649.752686	44697.285156	37857.941406	84.112114
530.460510	1649.731201	44978.562500	38098.613281	84.121544
530.809387	1647.408325	44862.527344	38013.355469	84.150978
531.158142	1642.504639	44333.128906	37574.933594	84.169373
531.506958	1635.901611	43292.691406	36694.285156	84.160072
531.855652	1623.814087	41803.566406	35371.261719	83.991180
532.204407	1609.554199	40108.777344	33844.859375	83.729752
532.552979	1591.637939	38622.894531	32450.966797	83.333191
532.901611	1580.238647	37507.550781	31415.033203	83.042099
533.250183	1573.549683	36804.671875	30780.480469	82.900940
533.598755	1566.581299	36351.496094	30369.632813	82.803284
533.947205	1563.010864	35978.953125	30049.570313	82.771408
534.295593	1561.505371	35663.878906	29792.357422	82.782654
534.643982	1561.634399	35411.527344	29586.613281	82.791924
534.992249	1567.914795	35183.628906	29397.406250	82.787148
535.340576	1561.526855	34984.875000	29236.783203	82.802170
535.688843	1556.752075	34779.281250	29066.224609	82.803673
536.037048	1552.041748	34511.781250	28818.664063	82.727058
536.385315	1550.880371	34046.386719	28428.638672	82.712234
536.733398	1545.288208	33382.691406	27877.798828	82.709351
537.081421	1536.878540	32527.445313	27165.861328	82.699303
537.429443	1531.695190	31672.181641	26462.892578	82.716637
537.777466	1528.555054	30902.644531	25821.564453	82.702171
538.125427	1524.640625	30244.908203	25272.720703	82.687531
538.473267	1519.865723	29722.843750	24830.236328	82.652161
538.821167	1509.907471	29287.111328	24482.238281	82.702103
539.169006	1508.853638	28941.242188	24192.287109	82.688507
539.516846	1508.401978	28654.732422	23953.720703	82.682701
539.864502	1509.240723	28495.763672	23822.585938	82.683289
540.212219	1507.928833	28504.111328	23822.304688	82.657524
540.559875	1511.520630	28838.193359	24121.031250	82.737885
540.907410	1519.500122	29597.880859	24756.679688	82.758263
541.254944	1530.125000	30617.769531	25619.775391	82.817467
541.602478	1536.168823	31697.882813	26542.189453	82.906494
541.949951	1542.857910	32720.099609	27384.767578	82.887093
542.297363	1549.718872	33602.207031	28128.689453	82.923271
542.644714	1555.117310	34395.015625	28790.857422	82.934914
542.992126	1562.107544	35014.703125	29305.935547	82.934761
543.339355	1564.710083	35429.875000	29660.019531	82.962273
543.686646	1564.580933	35497.582031	29722.800781	82.981819
544.033813	1562.494873	35207.761719	29484.404297	82.989120
544.380920	1554.149536	34458.527344	28853.056641	82.964355
544.728027	1542.900757	33316.277344	27902.013672	82.959747
545.075134	1530.189575	31969.875000	26786.607422	82.972008
545.422180	1519.500000	30666.382813	25678.085938	82.885658
545.769165	1509.111694	29513.033203	24706.757813	82.837135
546.116150	1500.379395	28531.037109	23875.173828	82.775620
546.463013	1491.259888	27665.556641	23144.242188	82.726128
546.809875	1481.581543	26966.525391	22552.576172	82.680168
547.156677	1477.903564	26331.867188	22010.748047	82.613960
547.503418	1472.526611	25801.994141	21575.210938	82.626900
547.850098	1467.601318	25317.220703	21175.763672	82.635124
548.196777	1466.676270	24898.181641	20820.236328	82.596313
548.543396	1465.321411	24474.513672	20469.742188	82.594902
548.890015	1459.385132	24032.888672	20085.605469	82.513641
549.236633	1453.341309	23521.126953	19673.166016	82.562996
549.583069	1448.588013	22973.126953	19231.951172	82.619019
549.929504	1444.006836	22375.375000	18743.783203	82.650009
550.275879	1438.049072	21767.470703	18234.970703	82.623703
550.622253	1435.747925	21120.251953	17703.462891	82.642242
550.968567	1428.047974	20528.802734	17229.513672	82.726921
551.314819	1424.520630	20002.304688	16801.998047	82.773476
551.661072	1421.982788	19598.126953	16467.976563	82.778801
552.007263	1416.218628	19304.757813	16226.718750	82.793236
552.353394	1411.852417	19120.906250	16066.077148	82.749901
552.699524	1410.153442	19001.708984	15969.721680	82.764534
553.045593	1407.249756	18950.607422	15923.071289	82.742554
553.391602	1407.701294	18928.796875	15900.292969	82.715103
553.737549	1407.895020	18905.654297	15880.225586	82.709618
554.083435	1408.690796	18871.564453	15853.792969	82.718933
554.429321	1405.744263	18837.603516	15813.444336	82.651543
554.775146	1404.711792	18766.435547	15737.391602	82.553314
555.120972	1401.593018	18699.888672	15665.040039	82.455795
555.466675	1400.001465	18572.431641	15563.927734	82.480614
555.812439	1400.861816	18412.195313	15424.856445	82.439117
556.158081	1400.431641	18199.246094	15246.900391	82.425270
556.503662	1400.495972	17978.443359	15068.447266	82.446587
556.849182	1400.818848	17754.201172	14872.165039	82.376511
557.194702	1397.764648	17537.119141	14696.422852	82.398949
557.540161	1393.140381	17350.515625	14526.144531	82.300529
557.885620	1390.774414	17176.365234	14386.019531	82.323463
558.231018	1387.849243	17019.054688	14254.562500	82.314270
558.576355	1386.472778	16895.041016	14158.852539	82.356926
558.921692	1386.365356	16771.951172	14060.063477	82.373840
559.266968	1382.923950	16670.603516	13973.322266	82.356506
559.612183	1381.353882	16585.216797	13897.636719	82.323044
559.957336	1378.815918	16526.220703	13836.359375	82.242096
560.302429	1376.493164	16485.611328	13790.891602	82.164948
560.647522	1377.073975	16465.630859	13769.921875	82.134087
560.992554	1376.149170	16452.361328	13746.069336	82.049255
561.337524	1375.396362	16454.466797	13744.928711	82.031136
561.682434	1376.772827	16478.041016	13741.014648	81.875519
562.027344	1379.590332	16486.343750	13740.734375	81.825287
562.372253	1380.256958	16492.281250	13731.292969	81.729858
562.717102	1381.052856	16496.431641	13728.540039	81.688240
563.061829	1383.289551	16506.345703	13727.055664	81.622162
563.406494	1382.923950	16506.863281	13713.527344	81.530365
563.751160	1383.010132	16487.873047	13708.494141	81.599442
564.095825	1383.805908	16480.019531	13707.139648	81.631950
564.440369	1381.052856	16470.945313	13697.266602	81.618965
564.784973	1381.547485	16486.128906	13717.872070	81.672737
565.129456	1383.504761	16545.621094	13765.511719	81.664108
565.473877	1381.934692	16631.501953	13843.134766	81.715103
565.818298	1379.418335	16780.574219	13966.483398	81.728058
566.162659	1381.225098	16958.230469	14111.211914	81.722931
566.507019	1383.117676	17142.789063	14263.594727	81.730614
566.851196	1382.623047	17304.982422	14402.859375	81.773285
567.195435	1384.924316	17465.066406	14529.562500	81.744537
567.539612	1386.128784	17583.642578	14623.574219	81.725166
567.883789	1387.870972	17669.867188	14685.024414	81.667831
568.227844	1390.107666	17720.433594	14726.449219	81.666107
568.571960	1392.796143	17746.607422	14733.546875	81.575790
568.915955	1391.957397	17702.988281	14699.865234	81.588394
569.259888	1392.301514	17641.583984	14651.234375	81.597038
569.603821	1394.624390	17538.859375	14568.342773	81.600143
569.947632	1393.140259	17414.093750	14459.875977	81.560287
570.291504	1390.537842	17301.820313	14362.832031	81.528900
570.635193	1388.817261	17230.070313	14300.394531	81.506035
570.979004	1387.720337	17189.140625	14281.531250	81.599060
571.322632	1388.387207	17251.921875	14324.912109	81.548820
571.666321	1386.881348	17348.537109	14406.795898	81.569946
572.009949	1388.752686	17484.488281	14525.949219	81.619110
572.353455	1388.688110	17614.806641	14634.781250	81.634392
572.696960	1392.903809	17731.423828	14736.191406	81.667664
573.040405	1395.269653	17836.578125	14815.965820	81.627907
573.383850	1396.302246	17900.994141	14876.961914	81.677750
573.727173	1397.678589	17957.580078	14934.774414	81.746231
574.070557	1398.667969	17983.669922	14961.981445	81.780594
574.413879	1400.474731	18000.898438	14975.167969	81.773170
574.757019	1398.560425	18007.070313	14984.458984	81.800827
575.100281	1398.409912	17948.935547	14948.065430	81.868431
575.443420	1397.850586	17855.351563	14876.983398	81.902672
575.786499	1394.968628	17718.580078	14764.065430	81.900360
576.129517	1395.011597	17557.830078	14651.878906	82.020767
576.472534	1395.269653	17409.726563	14536.403320	82.057945
576.815491	1393.376953	17219.445313	14410.946289	82.253967
577.158447	1392.839355	17037.873047	14277.102539	82.353699
577.501343	1389.634644	16846.281250	14138.675781	82.482582
577.844116	1385.655518	16634.621094	13990.056641	82.657417
578.187012	1383.182129	16399.818359	13804.377930	82.716225
578.529724	1380.321533	16122.384766	13596.459961	82.865868
578.872375	1377.310425	15831.832031	13376.196289	83.011299
579.215027	1374.062622	15551.066406	13154.125000	83.092751
579.557617	1371.159058	15267.546875	12948.163086	83.309448
579.900146	1368.104980	15013.774414	12745.772461	83.379326
580.242676	1364.362549	14763.677734	12562.093750	83.569427
580.585144	1363.910889	14546.577148	12395.255859	83.680679
580.927612	1360.620117	14349.434570	12238.719727	83.749748
581.269958	1358.254272	14169.499023	12104.403320	83.880600
581.612305	1359.136108	14031.352539	11998.883789	83.961220
581.954590	1358.017700	13892.000977	11913.883789	84.217972
582.296814	1359.329712	13789.235352	11838.347656	84.304886
582.639038	1358.168335	13691.159180	11778.985352	84.495461
582.981140	1360.641724	13596.156250	11726.269531	84.717545
583.323242	1364.212036	13520.319336	11674.994141	84.819771
583.665283	1361.824707	13440.610352	11637.011719	85.068054
584.007324	1359.243652	13378.174805	11604.555664	85.243118
584.349304	1357.071411	13312.359375	11570.487305	85.430115
584.691284	1355.264771	13251.771484	11550.377930	85.698380
585.033142	1354.447388	13186.343750	11519.944336	85.916039
585.374939	1354.253906	13123.582031	11493.187500	86.147087
585.716736	1352.533203	13080.458984	11475.616211	86.316055
586.058411	1353.329102	13023.613281	11448.452148	86.502808
586.400085	1354.124878	12978.125000	11425.911133	86.646477
586.741760	1351.285889	12935.324219	11408.381836	86.818565
587.083374	1348.253174	12922.503906	11420.189453	87.020203
587.424988	1348.167114	12903.749023	11417.910156	87.141808
587.766541	1346.360352	12895.706055	11429.954102	87.308784
588.107971	1346.166748	12910.008789	11460.281250	87.463272
588.449341	1346.747559	12925.581055	11496.069336	87.654099
588.790710	1346.941162	12962.487305	11541.989258	87.770714
589.132080	1345.693604	12993.931641	11589.886719	87.946289
589.473267	1348.984375	13041.616211	11647.743164	88.079048
589.814514	1347.392700	13090.913086	11714.956055	88.283264
590.155762	1346.424927	13151.329102	11782.469727	88.404320
590.496948	1348.704834	13191.547852	11841.058594	88.596581
590.838013	1348.102661	13204.711914	11872.653320	88.765266
591.179077	1349.005981	13229.359375	11913.089844	88.920616
591.520081	1350.704956	13229.360352	11928.747070	89.050835
591.861023	1352.339600	13208.475586	11923.950195	89.165733
592.201965	1351.930908	13188.343750	11911.390625	89.211655
592.542847	1353.264526	13146.706055	11896.980469	89.403214
592.883606	1353.716187	13099.450195	11869.385742	89.527565
593.224365	1352.468628	13047.250000	11849.855469	89.761292
593.565125	1352.511597	13016.602539	11843.188477	89.939941
593.905823	1353.823730	12999.008789	11848.091797	90.116791
594.246521	1353.350464	12995.803711	11867.340820	90.307343
594.587097	1354.942139	13030.777344	11909.841797	90.399529
594.927612	1354.017334	13055.768555	11956.836914	90.608826
595.268127	1354.985229	13121.110352	12032.761719	90.750153
595.608582	1350.597534	13227.984375	12139.547852	90.836060
595.948975	1350.877075	13347.805664	12278.166016	91.084053
596.289307	1352.597656	13530.000000	12467.008789	91.270790
596.629700	1353.845093	13753.403320	12685.207031	91.385208
596.969971	1355.157104	13974.957031	12893.555664	91.430916
597.310242	1355.028198	14161.775391	13084.375000	91.587242
597.650391	1355.286255	14280.758789	13204.259766	91.671494
597.990540	1353.350464	14364.662109	13285.883789	91.708916
598.330627	1354.425903	14370.918945	13313.327148	91.874985
598.670654	1356.727295	14358.681641	13305.327148	91.898491
599.010620	1355.845459	14279.640625	13253.535156	92.060341
599.350525	1358.834961	14147.237305	13148.725586	92.192055
599.690491	1358.985474	13981.238281	13003.031250	92.250137
600.030334	1356.426147	13756.113281	12792.337891	92.227425
600.370178	1354.576416	13481.950195	12537.274414	92.210388
600.710022	1352.210449	13190.322266	12283.155273	92.336899
601.049683	1351.221191	12926.418945	12025.834961	92.219711
601.389343	1349.005859	12712.930664	11839.166016	92.311066
601.728943	1349.220947	12547.619141	11695.040039	92.386597
602.068542	1346.145386	12447.219727	11604.147461	92.405487
602.408081	1343.714966	12407.515625	11576.015625	92.484497
602.747498	1347.392822	12457.952148	11612.105469	92.387001
603.087036	1349.758667	12558.715820	11712.547852	92.450966
603.426453	1349.027344	12710.046875	11864.050781	92.553520
603.765869	1350.661987	12902.652344	12045.019531	92.575890
604.105103	1350.833984	13132.744141	12277.994141	92.745232
604.444336	1352.103027	13408.628906	12536.584961	92.767044
604.783569	1354.791504	13683.350586	12817.393555	92.976006
605.122681	1358.039185	13923.790039	13052.647461	93.067329
605.461792	1360.362183	14122.050781	13247.296875	93.145470
605.800842	1361.910645	14273.315430	13395.337891	93.199989
606.139954	1362.641846	14346.141602	13473.583984	93.279488
606.478943	1359.931763	14330.636719	13479.712891	93.439651
606.817932	1356.813232	14249.227539	13411.768555	93.504250
607.156799	1358.340332	14120.008789	13289.968750	93.495842
607.495605	1357.071411	13942.028320	13135.499023	93.591324
607.834412	1356.512207	13730.906250	12937.128906	93.585327
608.173157	1356.963867	13487.928711	12715.897461	93.635864
608.511841	1357.523193	13275.150391	12505.872070	93.545036
608.850464	1356.813354	13123.109375	12369.984375	93.599304
609.189148	1357.222046	13038.905273	12286.102539	93.555702
609.527710	1357.178955	12987.802734	12243.796875	93.603043
609.866211	1356.619629	12966.853516	12230.849609	93.660728
610.204712	1356.576660	12970.832031	12232.139648	93.639771
610.543091	1358.921021	12985.652344	12248.206055	93.657318
610.881409	1359.200684	12981.887695	12249.582031	93.699333
611.219788	1358.555542	12962.636719	12233.237305	93.714287
611.558044	1359.222290	12924.590820	12204.115234	93.770409
611.896301	1357.071411	12848.300781	12139.118164	93.828491
612.234436	1355.092651	12720.778320	12032.006836	93.939903
612.572693	1350.468384	12538.434570	11862.202148	93.955719
612.910767	1346.295776	12311.265625	11658.240234	94.044441
613.248840	1345.951660	12067.795898	11435.137695	94.099350
613.586792	1344.962402	11823.615234	11206.873047	94.114296
613.924805	1343.112671	11590.983398	10987.663086	94.112724
614.262695	1339.284180	11367.793945	10775.851563	94.097404
614.600525	1335.563354	11181.536133	10591.140625	94.003685
614.938293	1333.627441	11017.816406	10444.240234	94.077187
615.276123	1329.906738	10869.152344	10309.836914	94.136681
615.613892	1329.584106	10751.783203	10198.639648	94.129356
615.951538	1328.035522	10640.694336	10098.928711	94.182480
616.289185	1328.014038	10566.943359	10028.209961	94.168877
616.626770	1327.411743	10496.353516	9961.685547	94.168709
616.964294	1326.013672	10445.938477	9907.291016	94.093727
617.301819	1323.604736	10407.267578	9868.318359	94.066826
617.639221	1323.153076	10378.189453	9851.113281	94.179192
617.976624	1321.325073	10362.853516	9835.907227	94.171936
618.313965	1324.164185	10346.486328	9825.948242	94.230553
618.651306	1327.497803	10337.819336	9807.624023	94.115692
618.988525	1329.605591	10326.570313	9795.407227	94.096199
619.325684	1329.433472	10320.224609	9787.685547	94.076836
619.662964	1331.111206	10312.611328	9783.040039	94.103752
620.000000	1331.605957	10289.296875	9765.467773	94.152176
620.337097	1329.842285	10270.563477	9743.594727	94.105972
620.674133	1327.670044	10244.667969	9726.709961	94.191338
621.011047	1330.035889	10211.373047	9703.761719	94.284515
621.347961	1329.648682	10182.379883	9666.680664	94.174690
621.684875	1331.390747	10146.871094	9638.248047	94.230339
622.021729	1329.863770	10114.371094	9605.620117	94.208534
622.358521	1329.132324	10068.881836	9576.347656	94.364426
622.695313	1327.325684	10045.352539	9550.086914	94.319061
623.031982	1326.551514	10015.541992	9523.330078	94.335220
623.368652	1324.529785	9991.561523	9497.649414	94.301262
623.705261	1323.712402	9977.149414	9480.744141	94.263481
624.041748	1326.443970	9965.019531	9475.345703	94.331551
624.378296	1330.057373	9964.589844	9473.819336	94.316193
624.714722	1329.777710	9987.903320	9487.413086	94.219414
625.051147	1331.756470	10010.014648	9518.125977	94.331947
625.387512	1333.520142	10059.138672	9563.593750	94.320801
625.723877	1334.358887	10114.349609	9624.547852	94.421394
626.060120	1332.380249	10206.467773	9695.631836	94.243507
626.396301	1335.004150	10316.202148	9794.030273	94.185944
626.732483	1338.079956	10427.527344	9902.324219	94.221840
627.068604	1340.488770	10542.659180	10003.711914	94.143257
627.404724	1345.156006	10649.726563	10103.487305	94.129341
627.740662	1346.575562	10744.706055	10197.089844	94.173134
628.076721	1345.392578	10811.510742	10258.710938	94.160225
628.412720	1344.360107	10847.579102	10293.338867	94.167870
628.748596	1344.058960	10864.636719	10304.092773	94.112289
629.084473	1344.790161	10857.860352	10292.672852	94.058830
629.420227	1344.058960	10822.523438	10259.421875	94.059151
629.755981	1344.381592	10759.699219	10210.233398	94.164131
630.091675	1345.285034	10655.600586	10121.275391	94.260933
630.427307	1343.714966	10541.219727	10013.993164	94.267723
630.762939	1340.768311	10419.979492	9904.130859	94.318352
631.098450	1338.208862	10297.727539	9788.631836	94.317825
631.434021	1338.208862	10185.499023	9675.327148	94.233582
631.769470	1335.197754	10085.313477	9565.099609	94.054787
632.104980	1333.240479	9990.163086	9479.819336	94.104790
632.440308	1331.627441	9907.851563	9397.830078	94.053070
632.775635	1330.315430	9827.433594	9319.476563	94.022011
633.110901	1330.401489	9767.102539	9265.665039	94.056473
633.446106	1330.788574	9724.925781	9219.745117	93.981750
633.781250	1328.100098	9693.135742	9186.278320	93.940765
634.116394	1329.304565	9672.036133	9162.555664	93.893120
634.451538	1330.186401	9660.164063	9152.897461	93.910347
634.786560	1329.261597	9636.849609	9132.292969	93.926559
635.121582	1326.723511	9609.641602	9106.247070	93.922501
635.456543	1329.820679	9574.928711	9093.491211	94.160927
635.791443	1334.122437	9539.719727	9061.487305	94.171867
636.126221	1333.455688	9498.402344	9026.343750	94.218475
636.461060	1330.294067	9459.751953	8995.329102	94.287163
636.795776	1328.336792	9411.875000	8942.096680	94.188454
637.130493	1327.261353	9340.318359	8877.336914	94.222160
637.465210	1329.089478	9269.083984	8804.704102	94.151382
637.799805	1327.562378	9190.750977	8730.415039	94.145683
638.134399	1325.196655	9101.235352	8640.232422	94.071495
638.468933	1324.400757	9013.999023	8561.469727	94.115044
638.803345	1324.099731	8930.870117	8487.869141	94.176231
639.137756	1322.357422	8856.818359	8408.052734	94.043823
639.472168	1320.937988	8790.487305	8345.787109	94.046494
639.806519	1319.582886	8721.060547	8282.144531	94.069885
640.140747	1319.797974	8648.619141	8215.425781	94.089180
640.474976	1320.142090	8578.417969	8153.654785	94.147881
640.809204	1321.066895	8510.150391	8094.486328	94.218124
641.143372	1321.023926	8444.959961	8040.437012	94.321640
641.477478	1320.658325	8379.188477	7982.946777	94.386345
641.811462	1321.798340	8318.385742	7930.273438	94.452835
642.145447	1322.206909	8273.305664	7883.256348	94.388664
642.479370	1321.647583	8229.859375	7839.121582	94.343864
642.813293	1321.346558	8179.572266	7795.094238	94.393913
643.147095	1318.873169	8133.115234	7748.981445	94.362778
643.480957	1319.862427	8095.455078	7709.600098	94.305222
643.814758	1322.593872	8059.644043	7672.477051	94.253166
644.148438	1322.809082	8031.532715	7645.419922	94.244614
644.482117	1322.593872	8010.153320	7615.180176	94.093910
644.815735	1320.400146	7981.741699	7584.746582	94.040314
645.149292	1319.002075	7963.890625	7563.345703	93.972137
645.482788	1318.636475	7946.726563	7554.807617	94.086998
645.816223	1318.098755	7929.542480	7538.203125	94.080879
646.149658	1321.884277	7921.261230	7531.707520	94.097115
646.483032	1322.830566	7925.670410	7538.805176	94.140930
646.816345	1325.002930	7925.347168	7532.718750	94.051392
647.149658	1325.712769	7925.153320	7534.611328	94.082199
647.482849	1323.067261	7931.089355	7539.343262	94.071655
647.816101	1323.690918	7933.498535	7542.354492	94.082367
648.149231	1325.583618	7934.251465	7552.354980	94.221275
648.482239	1325.562134	7940.402832	7558.700195	94.229599
648.815247	1325.282715	7940.918457	7555.990234	94.181541
649.148254	1326.250366	7943.090820	7549.085938	94.045425
649.481201	1326.723511	7939.155762	7549.667480	94.109756
649.814087	1323.475830	7926.875000	7545.149902	94.219254
650.146973	1323.949097	7914.399902	7538.159180	94.291122
650.479736	1322.873657	7914.377930	7530.546387	94.176872
650.812500	1323.820068	7909.216797	7526.953613	94.195297
651.145203	1324.185547	7898.226074	7519.038574	94.232048
651.477844	1325.045898	7892.375488	7509.037598	94.162956
651.810486	1322.529419	7888.052734	7498.026367	94.059479
652.143005	1322.421875	7879.083984	7491.960938	94.095726
652.475525	1322.830566	7875.061035	7492.799805	94.165939
652.807922	1321.389526	7863.532715	7485.120605	94.215775
653.140381	1321.131348	7854.090820	7469.441895	94.112183
653.472717	1322.206787	7835.443359	7442.642090	93.969193
653.805115	1322.744507	7811.312012	7418.918945	93.952545
654.137390	1323.303833	7778.468750	7399.046387	94.122192
654.469543	1322.292847	7743.497070	7375.408203	94.267601
654.801758	1323.992065	7706.976563	7344.609375	94.322922
655.133850	1322.938110	7666.024902	7309.098633	94.372986
655.465881	1323.798340	7628.988770	7275.116699	94.387604
655.797974	1326.874023	7598.726563	7245.542480	94.368744
656.129944	1328.723755	7561.474609	7213.409668	94.415550
656.461853	1331.111206	7537.429199	7186.482422	94.345329
656.793762	1330.465942	7519.620605	7173.491699	94.407494
657.125610	1329.476685	7518.437500	7174.781738	94.447281
657.457397	1330.100342	7528.761230	7182.782715	94.418495
657.789124	1327.884888	7549.730957	7201.365234	94.400925
658.120789	1325.863281	7595.220703	7233.046875	94.223114
658.452393	1325.712646	7671.316895	7304.065918	94.212517
658.783997	1325.906250	7765.521484	7390.034180	94.169106
659.115540	1325.024292	7877.062500	7501.359375	94.265862
659.447083	1322.099243	7988.430176	7611.716797	94.349014
659.778503	1323.475952	8102.724609	7716.740723	94.306389
660.109924	1322.895264	8201.403320	7815.764160	94.393570
660.441284	1327.067749	8284.660156	7887.364258	94.289749
660.772522	1329.347656	8343.678711	7939.242188	94.234138
661.103760	1328.401245	8376.391602	7969.289063	94.223846
661.434998	1329.067993	8385.361328	7981.247070	94.272995
661.766113	1332.659912	8352.733398	7956.254883	94.352219
662.097229	1332.573730	8281.864258	7891.923828	94.388771
662.428345	1334.746094	8188.197266	7800.320801	94.340424
662.759277	1336.638794	8055.599609	7678.929688	94.393929
663.090332	1339.757446	7920.400391	7551.968262	94.401276
663.421204	1336.617310	7777.931641	7415.327637	94.370651
663.752075	1336.230225	7635.720215	7276.234863	94.293419
664.082886	1333.584595	7499.488770	7159.468262	94.485474
664.413635	1332.401733	7379.345215	7052.335938	94.592155
664.744324	1331.347778	7271.783203	6950.000488	94.583183
665.075012	1333.627686	7177.986328	6860.205078	94.562599
665.405640	1333.477051	7108.106445	6787.292480	94.444420
665.736206	1333.971802	7047.948730	6724.015625	94.330864
666.066772	1332.638184	6992.845215	6676.009766	94.402405
666.397278	1331.175659	6956.948242	6630.025391	94.188835
666.727661	1328.895752	6917.653320	6589.203613	94.123016
667.058044	1331.648804	6889.562988	6565.179199	94.163567
667.388306	1331.068237	6871.109375	6543.606445	94.088440
667.718567	1330.874756	6853.817383	6525.239258	94.050667
668.048828	1331.842651	6843.343262	6512.613770	93.999283
668.378967	1334.186890	6841.342285	6513.603027	94.048843
668.709167	1333.907227	6841.601074	6508.569824	93.953346
669.039246	1334.165283	6841.170410	6509.816895	93.983055
669.369263	1335.434326	6843.127930	6514.828125	94.039253
669.699341	1336.638794	6839.643555	6512.226074	94.050209
670.029236	1335.993530	6832.223145	6515.451660	94.236565
670.359131	1335.735474	6828.630859	6509.945801	94.198235
670.688965	1335.993530	6818.565430	6496.804688	94.131210
671.018738	1338.402466	6799.423340	6487.470703	94.287651
671.348511	1339.563965	6785.142578	6471.468750	94.239845
671.678223	1340.617676	6766.085449	6450.326660	94.180061
672.007813	1339.284302	6734.426270	6417.827637	94.131783
672.337341	1339.714478	6704.465332	6388.146484	94.103752
672.666992	1340.596313	6671.987793	6355.281738	94.059601
672.996460	1339.822144	6636.758301	6326.138672	94.135864
673.325867	1340.768555	6604.001465	6297.705078	94.180450
673.655273	1343.693604	6570.578125	6259.120117	94.041229
673.984619	1346.166992	6531.841797	6227.137695	94.124115
674.314026	1346.769165	6501.708984	6203.995117	94.224686
674.643250	1347.457397	6475.360840	6181.798340	94.275192
674.972412	1348.102539	6445.852051	6154.784180	94.290268
675.301514	1346.123901	6418.300293	6129.318848	94.302612
675.630676	1348.425171	6399.007813	6106.455078	94.207542
675.959778	1348.726196	6375.133301	6087.227051	94.272125
676.288757	1346.769043	6355.583008	6067.805176	94.254570
676.617737	1347.994995	6330.139160	6045.437500	94.285561
676.946594	1345.564575	6317.104980	6027.843750	94.181656
677.275513	1346.769043	6303.340820	6022.058105	94.325058
677.604309	1348.296143	6301.619141	6020.315430	94.320908
677.933044	1348.339111	6297.081055	6019.670410	94.394310
678.261780	1347.371216	6302.092285	6017.412598	94.254372
678.590393	1346.725952	6318.115723	6033.865723	94.282280
678.919067	1347.736816	6339.990234	6054.083008	94.272980
679.247620	1350.597290	6369.906738	6083.592285	94.295738
679.576111	1354.576294	6414.687012	6120.262695	94.181465
679.904541	1357.888672	6464.951660	6168.097168	94.187370
680.232971	1360.211548	6527.389160	6224.190918	94.132225
680.561401	1367.094238	6579.482422	6275.443848	94.167000
680.889709	1368.986816	6631.660645	6318.008301	94.040054
681.217957	1370.320313	6676.612793	6354.937500	93.937851
681.546143	1373.030396	6715.370117	6387.931641	93.870880
681.874390	1376.299683	6754.256348	6424.473633	93.867882
682.202454	1380.837769	6781.851074	6448.519043	93.828346
682.530579	1384.322144	6789.357422	6463.123047	93.964249
682.858521	1385.376099	6781.614258	6456.606445	93.977142
683.186523	1385.913696	6746.879395	6430.904785	94.106010
683.514465	1386.193237	6701.539551	6387.824707	94.097939
683.842346	1388.881836	6645.490234	6328.053223	93.961182
684.170166	1386.279297	6579.826172	6266.690918	93.970688
684.497925	1386.472778	6514.226563	6202.208984	93.915123
684.825623	1385.655396	6446.218262	6135.899902	93.867905
685.153320	1384.773682	6370.703125	6068.751953	93.943932
685.481018	1383.354126	6294.414551	5995.043945	93.904152
685.808533	1384.106934	6218.426270	5923.099609	93.891037
686.136047	1385.784668	6154.891113	5855.994141	93.732643
686.463623	1386.774048	6099.916992	5806.719727	93.779160
686.791016	1387.526855	6063.267090	5773.662109	93.806221
687.118408	1389.634644	6037.909180	5750.647949	93.820045
687.445740	1388.042969	6019.132813	5739.313477	93.957809
687.772949	1389.613159	6015.045410	5732.947266	93.901154
688.100220	1391.161621	6012.099609	5734.409668	93.990616
688.427429	1396.474121	6003.087402	5732.947266	94.135818
688.754517	1399.270264	6008.249512	5724.988770	93.854156
689.081604	1402.259888	5999.280762	5721.612305	93.959816
689.408630	1401.657593	5991.171875	5711.826172	93.913391
689.735657	1402.023193	5971.492188	5697.608887	94.006241
690.062622	1401.377930	5948.737305	5674.767090	93.975182
690.389465	1403.141602	5917.722168	5641.645020	93.884766
690.716248	1404.238647	5876.018555	5601.769043	93.867104
691.043091	1406.045288	5826.141113	5551.160645	93.778854
691.369812	1407.744385	5769.511230	5498.788574	93.793282
691.696533	1407.658325	5708.041016	5446.373535	93.915253
692.023132	1403.399658	5655.582520	5392.753906	93.818977
692.349670	1401.700439	5592.693359	5340.983887	93.994034
692.676270	1403.227661	5541.073730	5291.278809	93.963165
693.002747	1403.378052	5492.959961	5245.961426	93.960297
693.329163	1403.313599	5450.717773	5202.687500	93.871864
693.655518	1405.593506	5407.400879	5164.252930	93.924049
693.981873	1404.389038	5364.772461	5126.183105	93.975601
694.308167	1406.260254	5326.423828	5095.448242	94.108009
694.634399	1406.195801	5301.151367	5068.047363	94.015236
694.960571	1406.604492	5276.309570	5042.172852	93.949493
695.286743	1409.400513	5256.242676	5019.611328	93.848686
695.612854	1414.239746	5242.563477	5006.577148	93.835777
695.938904	1418.713379	5237.853516	5001.673340	93.815880
696.264832	1420.197388	5241.918457	5003.910156	93.772224
696.590820	1425.208862	5250.500000	5011.609863	93.754982
696.916687	1428.047974	5274.652832	5032.580078	93.706848
697.242554	1430.822510	5313.324707	5066.047363	93.630981
697.568359	1435.919800	5373.332520	5117.279785	93.496925
697.894043	1442.802490	5455.772949	5191.590332	93.416779
698.219788	1451.663696	5556.581055	5284.805176	93.379257
698.545349	1459.578735	5674.015137	5400.195801	93.502823
698.870972	1470.827515	5799.234375	5518.984375	93.525330
699.196533	1477.903442	5917.076660	5627.170410	93.469360
699.521973	1484.678589	6021.197266	5726.817383	93.510887
699.847412	1493.948730	6108.326172	5805.622559	93.439987
700.172852	1502.121582	6172.678223	5864.619629	93.404243
700.498169	1510.208618	6207.930176	5898.881836	93.421318
700.823486	1514.832764	6215.135742	5905.419922	93.410728
701.148682	1517.456909	6188.142578	5885.181152	93.513557
701.473816	1518.682739	6122.328613	5827.022949	93.585396
701.799072	1518.897949	6019.906738	5729.613281	93.550484
702.124146	1515.607300	5893.568848	5607.361328	93.462540
702.449158	1510.832153	5747.744141	5468.118164	93.400238
702.774109	1510.466675	5599.274414	5331.563965	93.452606
703.099060	1508.014771	5460.439941	5199.181641	93.389923
703.424011	1501.906372	5323.562500	5072.047852	93.418701
703.748840	1494.937866	5198.386230	4953.517578	93.388092
704.073608	1492.292236	5088.071289	4850.364746	93.389290
704.398315	1489.216675	4990.511230	4762.181641	93.478706
704.723022	1488.506958	4912.694824	4684.773926	93.343796
705.047668	1487.194946	4849.225098	4617.130859	93.096603
705.372253	1486.958496	4791.949219	4567.984863	93.223450
705.696716	1489.560913	4742.028809	4524.646484	93.316391
706.021240	1486.377808	4705.701660	4492.491699	93.377182
706.345764	1486.076660	4678.321777	4463.477539	93.269806
706.670044	1489.023315	4652.834961	4437.194824	93.184166
706.994446	1493.626099	4636.037109	4417.213867	93.036453
707.318665	1498.056641	4628.853516	4409.987305	93.009247
707.642883	1500.013794	4621.927246	4404.480957	93.034836
707.967102	1503.326050	4619.539551	4398.093262	92.893738
708.291260	1507.907349	4620.271484	4395.555176	92.779884
708.615295	1511.757324	4613.496582	4394.672852	92.945129
708.939331	1514.875854	4623.369141	4399.426758	92.795792
709.263367	1517.671875	4634.337891	4403.233887	92.584900
709.587280	1525.285645	4649.156250	4412.353516	92.419571
709.911194	1529.910034	4660.512207	4423.494141	92.428993
710.234985	1534.168457	4682.300293	4438.872559	92.267548
710.558716	1538.620728	4706.905762	4463.499512	92.317413
710.882568	1546.449707	4732.435547	4484.383789	92.214287
711.206177	1551.869629	4761.234863	4513.269043	92.273682
711.529785	1558.451172	4791.948242	4539.938965	92.206291
711.853394	1566.322998	4811.542480	4561.511230	92.295395
712.176880	1571.054810	4837.051270	4584.116699	92.255516
712.500427	1575.356567	4848.170898	4595.430176	92.277573
712.823792	1581.636841	4854.945801	4609.582031	92.504105
713.147217	1587.981689	4857.269043	4609.474609	92.420540
713.470520	1594.068481	4847.482422	4606.184082	92.583229
713.793823	1596.627808	4831.975098	4598.828125	92.793755
714.117004	1599.639038	4813.134277	4581.126953	92.780220
714.440247	1599.165894	4789.754395	4557.273926	92.713554
714.763367	1603.875854	4761.858887	4527.787109	92.587936
715.086365	1608.371094	4733.424805	4500.644043	92.551147
715.409485	1608.629272	4712.583984	4478.705566	92.465149
715.732361	1610.801636	4689.419922	4456.896484	92.447151
716.055298	1614.780762	4668.600098	4440.356934	92.525978
716.378174	1617.232544	4652.146484	4418.483398	92.300835
716.700928	1617.490723	4631.476563	4401.986816	92.385841
717.023804	1617.533691	4612.958496	4380.628906	92.243851
717.346558	1623.104248	4589.815918	4357.270996	92.161530
717.669189	1625.040161	4560.134766	4326.535645	92.041176
717.991760	1629.470703	4523.679199	4299.607910	92.257942
718.314392	1629.169556	4482.189453	4258.871582	92.172577
718.636902	1627.621094	4440.808105	4216.135254	92.013580
718.959351	1629.341797	4385.704590	4170.237793	92.182930
719.281738	1630.244995	4331.891113	4117.908203	92.079536
719.604065	1629.642700	4277.132324	4061.879883	91.869568
719.926453	1629.685913	4219.189453	4010.776611	91.951637
720.248718	1630.782715	4167.097168	3962.039307	91.915123
720.570923	1631.535522	4116.423828	3916.227539	91.943451
720.893066	1628.094116	4070.225098	3870.673340	91.828789
721.215088	1627.599487	4024.885742	3838.238525	92.214241
721.537170	1624.631348	3983.074463	3799.739746	92.226448
721.859192	1624.695801	3953.220947	3772.402588	92.234642
722.181152	1625.448730	3915.560303	3747.410400	92.657570
722.503052	1625.964844	3889.772461	3719.945068	92.498154
722.824951	1626.739136	3870.092285	3700.609375	92.445107
723.146790	1625.857300	3852.434326	3686.758057	92.559151
723.468506	1624.373169	3838.518799	3667.593994	92.280334
723.790161	1624.953979	3823.914795	3653.721191	92.260269
724.111816	1626.889771	3815.247070	3645.118164	92.225723
724.433472	1631.427856	3805.503906	3636.966553	92.247856
724.755005	1636.890991	3800.771973	3623.953857	91.828667
725.076477	1641.708862	3796.147705	3620.663330	91.854744
725.397888	1646.956665	3793.975586	3618.319580	91.818604
725.719299	1652.613281	3796.771240	3616.813477	91.607063
726.040710	1656.097656	3798.341553	3619.717285	91.661812
726.361938	1660.291748	3797.567383	3622.879150	91.826591
726.683167	1668.808716	3805.762451	3629.309570	91.742790
727.004395	1676.659058	3811.676758	3641.935303	92.049652
727.325500	1686.273438	3822.968750	3653.549316	92.070961
727.646667	1695.306763	3836.905273	3666.368164	92.036919
727.967651	1702.640991	3852.821289	3680.821777	92.000702
728.288635	1711.201172	3870.888184	3704.028809	92.273911
728.609558	1721.976685	3887.062500	3719.342285	92.253410
728.930481	1729.267944	3898.289307	3735.452148	92.492592
729.251282	1736.430054	3910.721191	3744.571289	92.358437
729.572021	1742.646118	3921.582764	3750.335205	92.140778
729.892761	1749.743774	3928.292969	3759.368896	92.246025
730.213440	1756.110107	3928.594482	3765.456055	92.490700
730.534119	1766.390747	3936.121826	3769.456299	92.318611
730.854675	1771.036743	3941.284180	3775.951660	92.381851
731.175171	1775.725342	3945.972412	3782.941650	92.487915
731.495605	1783.597290	3952.231445	3788.060791	92.429764
731.816101	1788.436646	3954.468506	3785.329102	92.191284
732.136475	1790.307739	3957.630371	3786.125000	92.086761
732.456787	1797.340942	3961.308350	3789.307861	92.051620
732.777039	1803.900879	3962.813477	3797.932861	92.362793
733.097229	1807.621826	3969.911133	3809.977295	92.603493
733.417480	1813.644165	3973.847412	3807.697754	92.308617
733.737549	1815.558472	3973.825684	3806.557861	92.249908
734.057617	1816.268066	3964.921631	3799.804443	92.315315
734.377563	1818.461670	3945.822021	3782.856201	92.339531
734.697510	1819.666138	3920.313477	3754.831055	92.122307
735.017517	1818.268433	3893.535889	3729.429932	92.092293
735.337341	1818.719971	3861.488525	3701.706055	92.178139
735.657166	1820.462158	3826.151367	3669.186035	92.173996
735.976868	1816.547607	3791.652344	3634.514893	92.044098
736.296631	1813.084839	3753.604736	3600.338867	92.101814
736.616272	1813.213745	3716.202393	3559.817383	91.782135
736.935852	1811.278076	3682.929443	3529.039795	91.777870
737.255371	1811.815918	3650.839600	3495.788086	91.568817
737.574829	1811.643799	3622.341553	3470.924805	91.637657
737.894348	1811.407349	3606.791260	3453.288086	91.450119
738.213745	1814.203247	3598.833496	3446.018555	91.437164
738.533081	1817.063965	3588.465820	3442.232910	91.744789
738.852356	1821.601929	3593.047119	3439.415527	91.327332
739.171570	1827.516724	3600.704102	3444.577393	91.195137
739.490784	1835.560669	3604.403320	3442.426514	90.842781
739.809937	1843.583130	3611.028320	3441.587646	90.413246
740.129028	1851.089478	3604.791260	3446.061035	90.948845
740.447998	1855.305176	3598.725830	3446.383789	91.261887
740.767029	1858.983154	3595.972656	3444.082764	91.255569
741.085999	1862.682373	3588.423340	3436.253662	91.182358
741.404846	1864.101929	3573.109375	3422.595947	91.192932
741.723633	1863.327637	3551.988525	3406.293213	91.372139
742.042358	1861.714478	3528.221924	3382.397705	91.249710
742.361145	1858.617310	3494.196289	3356.652344	91.590508
742.679810	1856.509644	3461.418213	3328.627441	91.725960
742.998413	1852.638184	3425.457031	3304.000732	92.277794
743.316956	1846.250122	3390.420410	3272.792725	92.382469
743.635498	1841.324951	3362.674805	3242.896240	92.126823
743.953979	1838.141724	3338.628906	3212.010986	91.561546
744.272400	1836.464111	3308.108643	3186.179688	91.714783
744.590698	1833.302368	3283.417725	3162.456787	91.658531
744.909058	1829.388184	3260.339600	3140.367432	91.615913
745.227356	1827.409424	3239.820557	3119.074951	91.451103
745.545471	1826.742554	3222.097900	3100.297852	91.271034
745.863586	1825.409058	3203.257080	3086.661865	91.537872
746.181702	1820.806519	3183.792236	3073.735840	91.925346
746.499756	1820.118042	3175.942139	3059.863037	91.438484
746.817810	1822.569946	3166.972900	3051.217041	91.389793
747.135742	1823.430420	3161.961670	3039.925049	90.882797
747.453613	1824.548828	3153.874756	3031.279053	90.777603
747.771423	1827.086670	3149.702148	3030.246338	90.968216
748.089233	1829.581543	3145.250000	3028.074219	91.093819
748.406982	1837.389038	3144.432617	3027.966553	91.089348
748.724609	1841.045410	3145.271240	3031.128662	91.248253
749.042236	1846.572754	3143.980713	3032.956787	91.442635
749.359863	1850.121826	3147.078125	3035.860107	91.424690
749.677429	1858.208862	3152.046631	3038.548584	91.227798
749.994873	1863.779297	3154.154541	3042.506104	91.347603
750.312256	1868.812134	3155.143555	3044.205322	91.375610
750.629639	1872.103027	3156.003906	3048.893799	91.657448
750.946960	1880.189941	3156.842773	3053.776367	91.926826
751.264282	1882.168823	3154.025146	3052.098633	91.986008
751.581482	1887.266113	3152.132568	3050.872559	91.994408
751.898621	1888.406128	3150.110840	3050.850830	92.132866
752.215698	1892.427856	3147.938477	3046.979492	91.958733
752.532715	1894.256348	3147.615723	3043.753662	91.713303
752.849792	1898.020264	3148.476318	3040.247559	91.344856
753.166748	1901.031372	3146.454590	3039.236572	91.391037
753.483643	1904.773804	3142.066650	3038.032227	91.591774
753.800476	1906.128906	3139.851563	3042.097412	92.076492
754.117310	1911.591797	3139.421143	3046.291260	92.415077
754.434082	1912.387451	3135.506836	3052.249023	93.192993
754.750732	1916.517090	3139.636475	3055.561523	93.126183
755.067383	1920.689575	3141.378662	3058.572510	93.216438
755.383911	1923.765259	3137.077148	3058.077881	93.488953
755.700562	1925.507324	3139.120117	3060.271729	93.503006
756.016968	1927.314087	3137.313477	3061.906250	93.767998
756.333435	1931.400757	3130.818115	3064.422607	94.464355
756.649780	1933.981934	3129.010986	3064.013916	94.561050
756.966064	1936.562866	3129.484619	3064.271973	94.533371
757.282410	1940.885620	3129.742432	3062.658691	94.357292
757.598633	1945.940186	3132.732178	3064.960693	94.289520
757.914795	1951.403076	3138.883545	3067.734619	94.008415
758.230896	1957.575806	3146.303955	3074.724854	93.978516
758.546936	1962.092651	3158.283691	3082.510742	93.665482
758.862976	1970.932495	3168.198975	3093.587646	93.768196
759.178894	1979.664795	3177.253662	3101.308838	93.658524
759.494812	1988.332764	3188.308838	3113.332031	93.751808
759.810669	1994.247314	3199.622070	3126.516357	93.935020
760.126526	2002.269653	3208.569580	3134.259277	93.839813
760.442261	2008.829590	3214.806885	3143.593994	94.095009
760.757935	2013.389160	3224.119629	3150.368652	93.908554
761.073608	2015.905762	3225.711670	3156.627441	94.289642
761.389160	2018.207031	3227.905518	3159.638428	94.356682
761.704712	2024.917603	3230.164063	3159.574219	94.143120
762.020203	2029.025513	3229.217285	3161.617432	94.367577
762.335571	2033.348755	3242.917969	3168.865723	93.877800
762.650940	2045.221191	3264.253906	3195.815430	94.385841
762.966370	2069.826416	3312.926514	3246.014893	94.617355
763.281677	2110.368896	3394.571045	3325.250732	94.602074
763.596863	2154.266602	3499.401367	3434.060059	95.142395
763.911987	2199.627197	3606.425537	3539.298584	95.228386
764.227112	2239.911865	3690.006104	3623.222900	95.394562
764.542236	2273.378174	3756.508545	3685.273682	95.196991
764.857178	2297.596436	3808.837646	3732.118164	94.923416
765.172119	2311.985352	3837.636719	3766.875244	95.361885
765.487061	2324.567383	3858.413330	3789.308594	95.494675
765.801880	2333.579590	3864.199219	3797.675049	95.653778
766.116760	2329.127197	3845.895996	3779.672852	95.633934
766.431458	2312.781006	3798.449463	3730.548340	95.429588
766.746155	2276.217529	3709.492188	3642.881104	95.352524
767.060791	2232.878906	3593.026367	3525.490479	95.034668
767.375427	2185.518066	3471.462402	3401.840820	94.585960
767.689941	2143.964600	3367.729004	3301.592041	94.595612
768.004395	2109.250732	3278.169434	3215.602539	94.647453
768.318848	2084.258301	3200.246094	3141.421631	94.728935
768.633179	2062.449219	3138.819336	3078.768799	94.421013
768.947632	2041.629395	3083.199219	3027.343018	94.637306
769.261841	2020.831177	3027.923584	2977.164307	94.959816
769.576111	2006.678955	2983.724365	2933.266846	94.835701
769.890259	1989.106689	2941.031250	2891.476318	94.794235
770.204285	1975.750122	2907.843994	2855.730225	94.408958
770.518433	1961.920410	2873.883057	2821.747314	94.283127
770.832458	1952.607422	2845.836670	2796.862549	94.517181
771.146362	1943.423706	2820.134521	2769.870117	94.266708
771.460205	1933.056763	2796.303711	2745.135742	94.072617
771.774109	1919.915283	2772.106934	2724.939697	94.465187
772.087952	1911.527344	2752.814209	2707.582764	94.623543
772.401672	1906.257813	2728.961670	2686.225342	94.805382
772.715332	1899.999146	2712.916748	2670.330811	94.761345
773.028992	1892.600342	2696.527588	2653.834229	94.689400
773.342590	1889.029785	2679.643555	2639.079834	94.869339
773.656128	1883.308716	2663.641846	2622.109863	94.677658
773.969604	1882.491455	2651.618896	2610.086914	94.600121
774.283020	1878.211426	2633.035889	2594.880615	94.945145
774.596375	1872.275024	2618.776123	2579.244385	94.704399
774.909729	1869.930542	2604.322510	2568.060303	95.062279
775.223022	1867.220581	2592.988037	2556.811523	95.015411
775.536194	1863.198730	2577.394775	2542.573242	95.124374
775.849304	1855.670776	2568.318359	2527.453125	94.265717
776.162476	1850.422729	2556.790039	2513.494385	93.870659
776.475525	1848.530029	2546.122070	2503.041260	93.824356
776.788513	1845.002808	2538.701660	2494.997314	93.699806
777.101440	1843.153198	2527.668213	2487.641602	94.152557
777.414307	1839.561279	2518.742432	2479.102783	94.163612
777.727173	1836.227661	2514.161133	2474.091553	94.089455
778.039978	1838.034058	2506.654541	2471.230713	94.701950
778.352722	1836.076904	2499.858154	2465.359375	94.802689
778.665405	1835.302612	2495.126465	2460.950195	94.820396
778.977966	1834.872559	2493.212158	2459.444580	94.870796
779.290649	1836.442871	2491.233643	2456.799072	94.741135
779.603149	1840.034424	2487.964600	2454.368896	94.814919
779.915588	1839.238647	2485.254150	2452.282471	94.896149
780.227966	1840.120361	2478.371582	2451.551270	95.797844
780.540405	1838.744019	2478.543457	2446.625732	95.011292
780.852722	1835.496460	2476.543457	2443.076904	94.779388
781.164917	1834.592896	2467.983398	2436.646240	95.052475
781.477173	1832.033325	2461.509277	2429.763428	94.956779
781.789246	1829.624634	2456.046387	2423.010010	94.726173
782.101379	1827.323120	2448.131348	2416.729492	94.941780
782.413452	1823.838989	2439.441895	2407.244629	94.769798
782.725403	1822.591675	2429.354736	2400.491211	95.243034
783.037292	1816.784424	2421.999268	2391.801758	95.010445
783.349182	1815.794922	2409.911621	2380.316650	95.018661
783.661072	1809.579224	2401.222168	2365.777100	94.009041
783.972839	1804.868652	2387.263672	2358.335205	95.032845
784.284546	1804.739746	2378.101074	2346.355225	94.463203
784.596191	1801.664063	2370.938965	2338.935059	94.378128
784.907898	1797.104370	2363.884277	2330.095215	94.038414
785.219421	1795.104248	2357.883545	2322.094238	93.640617
785.530884	1795.211670	2350.872070	2310.436523	92.722977
785.842346	1793.276123	2343.709961	2303.661865	92.724266
786.153748	1790.522949	2338.892090	2298.564209	92.645851
786.465149	1789.232300	2331.643799	2293.725098	93.009239
786.776428	1784.156616	2330.697510	2290.240723	92.597664
787.087646	1785.490112	2327.385254	2291.488037	93.375618
787.398804	1789.339844	2330.976807	2292.864746	92.963539
787.709961	1790.759644	2338.977783	2303.081055	93.452110
788.021057	1800.373535	2356.098389	2315.147217	92.631035
788.332031	1810.288696	2372.960693	2331.170654	92.572929
788.643005	1817.429565	2386.016113	2344.634521	92.722023
788.953918	1820.397583	2399.824219	2359.238525	92.995544
789.264832	1826.333862	2412.987061	2366.443848	92.066315
789.575623	1831.344971	2423.225098	2374.939697	91.842033
789.886353	1835.711304	2428.795898	2383.736328	92.402504
790.197083	1839.690308	2433.312500	2387.414307	92.268112
790.507690	1840.830200	2432.882080	2387.844482	92.392967
790.818359	1839.883667	2430.000244	2382.445801	91.941521
791.128845	1834.033569	2417.439453	2374.918213	92.711548
791.439331	1825.021606	2397.372314	2359.174072	93.326080
791.749756	1813.493408	2376.122314	2339.193115	93.436310
792.060120	1803.513794	2354.442139	2320.309082	93.804443
792.370483	1794.286987	2334.676270	2301.769287	93.910507
792.680786	1784.500732	2314.157715	2287.250977	94.919968
792.990967	1776.564331	2292.499023	2270.367432	95.710388
793.301086	1769.896606	2278.476074	2257.161377	95.808975
793.611267	1764.067993	2265.033447	2247.246094	96.449387
793.921326	1759.529785	2255.290039	2236.492188	96.208275
794.231323	1754.927246	2244.105713	2229.308350	96.975060
794.541260	1753.980835	2236.771729	2220.361084	96.600876
794.851074	1751.786743	2231.502197	2216.919678	96.960175
795.161011	1751.528931	2228.921143	2214.898193	97.062592
795.470764	1754.389404	2235.287354	2218.532959	96.516022
795.780518	1759.572754	2239.739990	2222.383057	96.385231
796.090149	1766.197388	2247.396729	2230.018555	96.388573
796.399780	1772.499268	2258.581055	2238.170166	95.800934
796.709412	1774.069214	2264.280518	2240.191895	95.086075
797.018860	1780.285156	2268.474609	2244.858643	95.162544
797.328308	1782.737061	2277.400635	2247.934326	94.043159
797.637756	1785.447144	2283.745361	2252.149902	93.659325
797.947205	1786.630005	2284.154053	2251.547607	93.446259
798.256470	1786.974121	2284.003662	2252.386719	93.638817
798.565674	1787.748413	2281.400879	2249.827148	93.604057
798.874817	1783.619019	2271.808350	2241.073242	93.704262
799.183960	1780.306641	2263.377197	2229.459229	92.978668
799.493103	1774.843628	2252.300537	2217.823242	92.778969
799.802124	1768.068481	2240.364014	2205.864746	92.695404
800.111084	1765.423096	2231.007813	2195.497803	92.373032
800.419983	1757.594238	2220.597900	2186.507568	92.637138
800.728821	1752.002075	2205.671387	2177.043945	93.689796
801.037659	1750.432007	2192.680420	2165.386719	93.828423
801.346436	1747.657471	2185.152588	2156.740479	93.505730
801.655151	1742.603027	2176.721436	2146.653320	93.073753
801.963745	1741.591919	2167.816895	2140.566406	93.606544
802.272400	1741.463013	2161.794678	2134.221436	93.440125
802.580933	1737.268799	2153.707520	2130.694336	94.473816
802.889404	1734.343750	2144.631348	2122.177002	94.527168
803.197815	1729.095825	2138.264893	2115.982666	94.554276
803.506226	1725.095581	2133.769775	2109.874268	94.152924
803.814575	1721.826294	2127.876465	2101.486084	93.500710
804.122864	1719.697144	2125.983643	2096.044922	92.631134
804.431030	1715.395386	2124.499756	2094.109131	92.571426
804.739197	1712.749878	2121.488525	2092.968994	93.022552
805.047241	1713.330566	2120.800293	2091.764648	92.874161
805.355408	1710.276489	2122.757568	2089.162109	91.855270
805.663391	1708.082764	2125.682617	2091.291260	91.764519
805.971313	1711.201294	2130.242432	2093.700439	91.279617
806.279175	1714.319946	2137.211182	2096.453369	90.362106
806.587036	1716.363281	2140.802979	2097.378418	89.768967
806.894836	1720.126953	2140.845947	2098.754883	89.995445
807.202576	1724.278198	2142.029053	2100.776611	90.125107
807.510193	1724.471802	2142.308350	2099.980713	89.869812
807.817810	1725.396484	2135.447266	2096.109131	90.406525
808.125427	1725.224487	2131.231934	2092.130127	90.369186
808.432922	1721.933594	2127.898193	2086.021729	89.684700
808.740295	1718.040649	2119.531494	2081.203857	90.453674
809.047729	1717.632080	2107.551270	2073.418213	91.246117
809.355103	1711.997192	2094.883057	2064.277344	92.006569
809.662415	1704.103516	2085.247559	2053.845703	91.761162
809.969604	1702.103394	2072.256836	2045.651245	92.812279
810.276794	1697.048950	2061.631836	2037.607300	93.410408
810.583923	1689.972778	2053.394043	2028.573853	93.170410
810.890991	1685.821777	2045.887817	2020.551514	92.963432
811.197998	1681.670654	2042.532715	2013.324707	91.906044
811.505005	1678.207886	2036.574951	2005.366821	91.291573
811.811829	1677.541138	2028.573853	1999.602661	91.746872
812.118713	1675.046387	2022.917236	1995.730957	92.184952
812.425537	1671.669800	2017.002441	1988.418335	91.722733
812.732300	1667.927246	2014.357056	1983.621948	91.128044
813.038940	1665.281738	2007.947754	1979.858276	91.802666
813.345581	1662.550049	2005.667847	1973.147705	90.522163
813.652100	1659.560425	2000.721069	1968.846436	90.657005
813.958740	1655.753540	1994.419067	1965.684692	91.515411
814.265137	1654.699585	1989.364746	1962.393799	91.940918
814.571533	1651.064941	1985.213745	1957.683594	91.761108
814.877930	1647.687988	1978.890503	1955.080811	92.811134
815.184265	1642.418701	1974.631714	1951.080566	92.910828
815.490540	1640.332397	1971.986206	1946.886353	92.431915
815.796692	1638.417969	1970.760254	1945.703491	92.460556
816.102844	1639.880737	1969.448120	1945.122925	92.619049
816.408936	1640.934326	1967.319092	1947.402710	93.897881
816.714966	1639.321411	1963.705566	1948.650024	95.358734
817.020935	1640.224609	1964.114380	1950.886719	95.916000
817.326843	1644.332764	1969.319214	1953.166870	95.029839
817.632690	1644.784424	1974.051147	1957.167236	94.872269
817.938477	1646.569580	1978.933228	1960.673096	94.505981
818.244263	1651.344482	1986.310547	1965.318848	93.733185
818.549988	1655.624512	1993.666504	1970.653076	93.192139
818.855652	1664.614746	2002.420288	1979.965942	93.352875
819.161194	1673.196533	2017.282349	1992.612549	92.830338
819.466797	1682.531250	2035.585571	2011.475098	93.170891
819.772278	1697.113647	2064.341797	2036.316772	92.368500
820.077698	1716.857910	2098.711670	2069.632813	92.384819
820.383057	1736.817505	2138.243408	2106.260986	92.032799
820.688354	1759.551514	2182.098389	2148.760742	92.110306
820.993652	1794.373047	2239.266846	2205.262451	92.356735
821.298828	1849.239868	2335.816162	2302.779785	93.210442
821.604004	1957.984497	2530.765381	2491.728271	93.184631
821.909058	2141.426758	2852.417969	2807.745850	93.716927
822.214111	2372.982178	3276.234131	3223.345459	94.144638
822.519165	2622.045410	3728.139160	3669.615723	94.709000
822.824036	2852.590088	4134.684570	4068.503906	94.838081
823.128906	3047.818604	4480.727051	4405.255371	94.732971
823.433716	3204.956299	4764.031250	4683.526855	94.836403
823.738525	3333.811035	4996.641113	4907.446777	94.635994
824.043213	3437.909912	5184.965332	5090.523438	94.594223
824.347900	3516.478760	5324.487793	5227.271484	94.623016
824.652466	3560.140381	5400.970703	5306.119629	94.847374
824.957031	3532.158447	5357.825684	5267.019043	95.026115
825.261536	3423.585693	5163.371094	5076.500000	95.006790
825.565979	3249.542725	4848.858887	4768.289551	94.962265
825.870300	3048.249023	4486.792480	4411.234863	94.747627
826.174622	2863.623535	4162.429688	4091.087646	94.507103
826.478821	2716.530029	3907.107666	3842.347412	94.560600
826.783142	2622.389404	3735.882568	3673.616943	94.408081
827.087280	2566.619141	3632.514648	3572.571289	94.376244
827.391357	2532.292236	3564.441406	3505.423584	94.282043
827.695435	2504.052246	3512.069580	3453.653809	94.204887
827.999451	2473.704346	3458.062744	3396.764648	93.772789
828.303406	2449.722900	3408.035156	3345.403320	93.464363
828.607239	2422.622559	3363.277100	3302.688477	93.558884
828.911011	2400.340332	3317.550781	3257.650879	93.469337
829.214844	2377.778320	3273.803711	3214.269287	93.355721
829.518616	2349.990234	3221.087402	3163.424072	93.380379
829.822205	2310.307861	3143.981201	3086.081299	93.054848
830.125793	2246.235352	3029.880615	2973.292969	92.778923
830.429382	2162.999268	2886.852539	2831.963867	92.417152
830.732849	2077.978027	2735.048584	2685.493896	92.458237
831.036316	1998.312134	2597.225098	2551.047119	92.289703
831.339661	1931.916870	2478.156494	2436.430908	92.361305
831.642944	1874.963379	2376.767822	2337.450928	92.164894
831.946228	1826.355347	2293.552979	2254.730957	91.690453
832.249512	1789.210938	2229.093506	2186.679443	90.357864
832.552673	1762.218384	2179.517334	2138.135986	90.083527
832.855774	1744.603394	2150.331055	2110.648682	90.219460
833.158813	1744.388306	2141.878418	2108.347412	91.564316
833.461731	1761.465576	2169.150635	2137.340088	92.197273
833.764771	1792.566284	2216.683350	2186.722656	92.935753
834.067627	1828.678223	2274.453857	2245.073975	93.409264
834.370422	1863.521118	2330.224365	2301.381836	93.819939
834.673157	1895.202637	2384.897461	2351.517090	93.183434
834.975891	1919.463745	2426.300781	2394.511475	93.727905
835.278564	1941.595581	2461.617188	2430.322510	93.982040
835.581177	1955.188599	2485.383301	2458.928223	95.010307
835.883728	1963.296997	2501.449951	2474.091553	94.916245
836.186218	1962.845337	2501.858398	2470.886719	94.254005
836.488647	1949.682495	2482.694580	2448.625977	93.608284
836.791077	1918.388184	2430.537598	2397.522705	93.553658
837.093384	1879.953247	2358.593506	2328.245361	93.659508
837.395630	1831.882813	2283.444336	2250.515381	92.707756
837.697815	1787.984863	2209.714844	2176.226563	92.059311
838.000061	1746.109009	2140.351318	2108.368652	91.887558
838.302124	1713.395020	2077.698242	2047.457764	91.699089
838.604126	1681.778198	2021.906372	1991.687378	91.115410
838.906128	1653.387817	1971.297974	1942.584717	90.968124
839.208069	1629.255737	1927.894653	1903.805786	91.933784
839.510010	1614.049316	1895.783325	1871.328613	91.319931
839.811829	1602.564087	1873.436401	1849.519653	91.170471
840.113586	1595.337402	1860.596191	1836.119995	90.772713
840.415222	1589.250732	1854.724487	1829.947144	90.666748
840.716919	1588.153809	1848.680786	1826.355469	91.430710
841.018555	1584.669434	1844.207153	1822.419434	91.605179
841.320068	1587.228882	1840.270996	1819.451172	91.772186
841.621521	1584.884399	1839.905151	1817.365112	91.161491
841.922974	1584.669434	1837.496582	1817.558594	92.113983
842.224365	1581.486328	1836.507080	1813.730103	91.068581
842.525635	1580.367920	1829.796509	1806.008667	90.463066
842.826965	1575.205933	1815.300049	1796.437622	92.143738
843.128174	1562.042969	1796.114868	1780.543091	93.347435
843.429260	1550.062988	1774.564087	1760.389893	93.686356
843.730408	1537.050659	1751.808472	1735.892456	92.588852
844.031433	1523.134888	1728.859375	1711.846558	91.730293
844.332397	1514.166016	1708.362183	1691.241821	91.183983
844.633362	1501.132324	1689.413574	1671.755371	90.621368
844.934204	1490.485840	1670.378906	1656.119141	92.073196
845.235046	1481.495483	1652.462891	1637.944946	91.508354
845.535828	1475.924927	1636.116699	1622.674194	91.608490
845.836487	1466.848511	1625.061401	1609.554321	90.198601
846.137146	1458.696899	1616.716431	1599.983154	89.410629
846.437744	1452.437988	1608.263672	1590.025024	88.295479
846.738281	1447.577026	1599.789551	1579.464722	86.647072
847.038757	1441.984985	1591.508911	1573.033691	87.643974
847.339172	1438.350098	1582.497192	1570.775391	91.868164
847.639526	1433.231323	1576.689819	1565.226196	92.009102
847.939819	1429.703979	1571.979614	1563.892700	94.316025
848.240112	1428.284424	1570.302002	1556.386353	90.201462
848.540283	1425.251831	1569.205078	1550.105957	86.732414
848.840393	1424.499146	1570.624512	1548.191772	84.648293
849.140564	1420.412598	1567.936035	1544.234375	83.933632
849.440552	1419.036011	1564.043091	1539.480957	83.061424
849.740540	1419.294189	1560.580444	1533.889038	81.108276
850.040405	1416.863770	1562.344116	1531.501587	78.799522
850.340210	1417.358398	1559.139526	1528.404663	78.322319
850.640137	1417.380005	1556.988403	1523.328613	75.889854
850.939819	1416.024902	1553.869873	1519.715210	75.222412
851.239502	1417.530518	1549.202759	1514.746826	73.832047
851.539185	1414.885132	1545.438721	1514.036987	75.947243
851.838745	1414.863403	1543.890259	1512.617554	75.762642
852.138245	1411.314575	1536.190308	1510.165527	79.159454
852.437744	1412.045898	1532.598511	1507.864136	79.482506
852.737122	1410.927490	1528.555054	1505.347656	80.270439
853.036499	1408.970215	1525.651489	1504.207886	81.622070
853.335815	1410.669434	1518.682861	1499.648315	82.377609
853.635010	1409.443481	1517.478394	1498.658936	82.580208
853.934204	1408.518677	1517.736328	1496.701538	80.740486
854.233276	1407.077637	1515.478149	1498.121094	83.988029
854.532410	1403.206177	1514.230591	1499.433105	86.671867
854.831482	1400.990723	1513.628418	1500.895752	88.695908
855.130371	1398.237671	1508.208252	1502.487427	94.797859
855.429260	1398.581909	1509.326660	1501.454956	92.892029
855.728088	1397.248413	1509.455933	1500.938721	92.409409
856.026855	1395.957886	1508.681641	1501.605469	93.722557
856.325623	1396.495728	1506.917847	1499.755859	93.513992
856.624329	1393.054443	1508.487915	1500.745239	93.292519
856.922913	1392.538208	1505.713379	1499.777344	94.755005
857.221436	1389.935669	1502.487183	1500.530029	98.261101
857.519958	1390.796021	1502.250488	1498.766357	96.873940
857.818420	1394.280151	1502.659302	1494.980835	92.915184
858.116821	1395.871826	1501.046143	1490.249146	89.734192
858.415161	1396.108398	1502.444214	1486.893799	85.376129
858.713379	1397.656982	1498.357544	1482.549194	84.301628
859.011658	1397.592529	1495.496948	1481.667480	85.874519
859.309814	1397.162231	1494.722778	1477.236816	82.076813
859.607910	1396.087036	1493.776489	1477.193848	83.025146
859.905945	1396.065430	1491.152344	1474.591309	82.583267
860.203979	1394.774902	1491.647217	1471.300537	78.996391
860.501953	1395.377197	1493.131226	1467.429199	73.707451
860.799744	1395.162231	1489.001709	1465.170776	74.604576
861.097656	1392.258667	1487.668091	1461.342285	72.407539
861.395325	1388.752808	1486.291626	1460.933716	74.002235
861.693115	1386.924561	1484.721558	1460.546631	75.280502
861.990784	1384.214478	1486.678833	1460.310059	74.265419
862.288330	1384.515747	1485.603394	1458.567871	73.255363
862.585815	1382.988525	1484.850708	1459.944336	75.548950
862.883301	1381.461670	1483.237427	1460.008911	77.176773
863.180786	1379.676270	1482.119141	1459.729370	78.144142
863.478149	1379.052612	1479.710083	1460.654175	81.068558
863.775452	1380.816284	1477.000122	1460.137939	82.468796
864.072693	1380.063599	1478.957520	1461.944580	82.796776
864.369873	1378.385864	1477.236816	1466.482910	89.121086
864.667114	1382.278931	1478.011108	1464.117065	85.486549
864.964111	1385.526611	1479.495239	1465.149292	84.733261
865.261169	1385.741821	1477.559448	1465.299805	86.647835
865.558105	1386.085815	1478.484253	1463.815918	84.124908
865.855042	1386.623535	1479.710327	1463.772827	82.878883
866.151917	1386.558960	1479.387695	1463.170654	82.530151
866.448730	1387.311646	1479.215698	1464.375000	83.851967
866.745422	1388.300903	1479.581177	1464.289063	83.247078
867.042114	1384.881226	1478.871582	1464.805176	85.034203
867.338806	1383.504639	1476.828247	1463.428711	85.641861
867.635376	1384.429565	1473.279419	1459.858398	84.894722
867.931824	1381.697998	1470.418823	1459.234497	87.393799
868.228271	1377.482544	1468.289551	1456.115967	86.594002
868.524658	1376.987793	1467.644287	1457.363281	88.659386
868.821045	1375.654297	1464.762207	1455.234131	89.307259
869.117310	1372.944336	1463.235229	1454.760986	90.614510
869.413574	1373.718628	1464.590088	1453.879272	88.213226
869.709717	1373.309937	1463.858887	1454.115845	89.240028
870.005859	1372.535645	1463.321167	1453.836304	89.552452
870.301880	1374.751099	1464.073975	1453.664185	88.345886
870.597900	1373.482178	1465.471924	1453.857544	87.374268
870.893860	1372.944458	1469.988647	1453.857544	83.377571
871.189636	1372.858521	1471.795288	1455.363159	83.391281
871.485535	1375.181274	1473.128784	1457.621582	84.167847
871.781311	1373.159546	1473.838379	1457.341919	83.614769
872.077026	1372.944336	1476.053711	1458.826050	83.291855
872.372681	1373.116333	1476.914063	1455.621216	79.486214
872.668274	1372.557129	1475.623535	1455.642822	80.613747
872.963806	1373.180908	1475.322388	1453.190918	78.332535
873.259338	1372.987305	1476.806519	1453.620972	77.667381
873.554688	1371.202026	1477.107666	1457.621460	81.600410
873.850098	1372.965698	1475.989258	1457.105347	81.670296
874.145447	1374.170166	1474.548218	1458.761353	84.272591
874.440674	1374.815430	1472.956665	1459.126953	85.908356
874.735840	1375.740356	1470.762817	1455.728760	84.178413
875.031006	1375.310181	1471.816772	1453.040283	80.543831
875.326050	1376.858887	1473.322266	1454.201660	80.178375
875.621094	1378.493530	1472.999756	1456.847168	82.908440
875.916077	1378.041870	1472.397461	1456.094360	82.721642
876.210999	1377.955688	1474.505249	1455.169556	79.973297
876.505798	1377.288940	1473.386719	1452.760742	78.536469
876.800598	1377.891113	1472.096313	1448.932251	75.411057
877.095337	1378.450317	1474.225586	1447.426758	72.019051
877.390015	1380.256958	1476.441040	1446.695435	69.074295
877.684692	1383.956421	1477.709961	1447.577271	67.859680
877.979187	1384.063965	1475.107544	1449.147339	71.485954
878.273804	1385.999634	1474.612793	1453.492065	76.165245
878.568237	1385.462036	1472.074829	1453.728516	78.818008
878.862610	1389.720703	1475.301147	1454.911377	76.174728
879.156921	1391.548828	1481.366455	1459.772339	75.957817
879.451172	1393.570557	1484.979614	1466.289185	79.552979
879.745422	1397.377441	1492.400024	1476.526978	83.295502
880.039612	1404.453613	1503.562622	1486.571411	82.856041
880.333679	1414.175293	1517.392212	1499.712769	82.871567
880.627686	1426.692871	1541.588989	1520.919556	82.010330
880.921692	1448.071899	1581.056152	1559.031982	83.438515
881.215698	1485.151855	1648.505371	1619.985596	82.541069
881.509460	1540.857544	1743.699951	1709.007324	82.896759
881.803345	1615.834473	1867.951904	1826.742310	83.654602
882.097046	1697.027344	2007.667969	1964.178833	86.000175
882.390808	1781.962769	2147.577881	2101.744141	87.463936
882.684448	1864.316895	2284.390625	2234.319824	88.080475
882.978027	1938.240112	2405.029053	2353.753906	89.015350
883.271545	2002.420044	2512.375732	2458.046387	89.346260
883.565002	2054.275879	2604.021729	2552.832275	90.688522
883.858398	2095.011963	2674.782959	2624.131348	91.263512
884.151733	2119.531494	2717.541016	2668.459229	91.792473
884.445068	2122.865479	2726.273438	2680.224365	92.368500
884.738281	2102.690674	2690.333740	2646.585693	92.555336
885.031433	2051.652100	2612.775635	2574.361572	93.154083
885.324585	1987.816040	2503.751221	2469.166016	93.296600
885.617676	1917.505981	2386.231201	2354.528320	93.236359
885.910645	1845.475830	2264.646240	2239.309570	93.955521
886.203552	1777.919189	2154.202393	2127.941162	93.020889
886.496521	1716.234253	2049.866943	2027.003906	93.147240
886.789368	1661.582153	1953.898071	1930.303833	91.928513
887.082153	1610.737183	1865.629028	1846.852661	92.633591
887.374817	1567.570679	1788.802368	1771.660278	92.251518
887.667480	1530.146606	1719.998047	1706.146851	92.704193
887.960083	1495.884277	1663.797607	1653.473755	93.851677
888.252625	1474.569824	1620.888794	1613.232056	94.767090
888.545166	1457.858154	1588.239746	1581.894897	95.133629
888.837524	1442.092651	1563.978638	1558.235962	95.288483
889.129883	1430.650513	1542.836304	1537.158203	94.938660
889.422241	1421.100952	1526.576172	1519.994629	93.760101
889.714478	1416.218750	1510.144165	1517.241577	107.556435
890.006714	1430.177124	1493.819580	1481.753418	81.040703
890.298767	1380.493774	1503.756104	1498.551392	95.777534
890.590881	1384.515625	1464.009399	1460.223999	95.238113
890.882935	1380.020264	1486.011963	1452.653076	68.526886
>>>>>End Processed Spectral Data<<<<<
