Jaz Data File
++++++++++++++++++++++++++++++++++++
Date: Thu Dec 19 19:55:42 2019
User: jaz
Dark Spectrum Present: Yes
Reference Spectrum Present: Yes
Processed Spectrum Present: Yes
Spectrometers: JAZA2928
Integration Time (usec): 32200 (JAZA2928)
Spectra Averaged: 10 (JAZA2928)
Boxcar Smoothing: 5 (JAZA2928)
Correct for Electrical Dark: No (JAZA2928)
Strobe/Lamp Enabled: Yes (JAZA2928)
Correct for Detector Non-linearity: No (JAZA2928)
Correct for Stray Light: No (JAZA2928)
Number of Pixels in Processed Spectrum: 2048
>>>>>Begin Processed Spectral Data<<<<<
W	D	R	S	P
190.104553	0.000000	0.000000	0.000000	0.000000
190.488098	0.000000	0.000000	0.000000	0.000000
190.871613	1222.216064	1221.506226	1224.108643	-266.620819
191.255096	1238.540649	1233.335571	1218.903687	377.265472
191.638535	0.000000	0.000000	0.000000	0.000000
192.021942	1036.773560	1030.450195	1021.460022	242.173889
192.405334	1155.648560	1147.669067	1137.001221	233.690796
192.788696	1274.652466	1262.909058	1253.123169	183.330902
193.172012	1281.298462	1269.963745	1258.951782	197.152512
193.555313	1285.621704	1275.921387	1264.285889	219.949661
193.938568	1287.686401	1279.212036	1266.845215	245.932129
194.321793	1290.460938	1281.040405	1271.125122	205.251831
194.704987	1289.019897	1284.245117	1273.211548	331.080139
195.088150	1289.234985	1288.267090	1275.684814	1399.962158
195.471298	1289.493042	1288.654419	1276.588379	1538.791870
195.854401	1289.772705	1286.008911	1277.039917	338.296631
196.237457	1290.568481	1284.460205	1278.007813	205.633606
196.620499	1288.439331	1282.847168	1278.911133	170.384842
197.003494	1284.438721	1283.922485	1278.093872	1229.061279
197.386475	1282.524536	1283.363403	1275.878540	-792.258423
197.769424	1281.212402	1279.771484	1275.534302	394.061340
198.152344	1276.953857	1280.287720	1276.416138	-16.129032
198.535217	1276.007568	1284.933472	1275.211792	-8.915359
198.918076	1276.867920	1284.051636	1274.846069	-28.144913
199.300903	1277.900269	1285.406616	1276.652832	-16.618422
199.683670	1277.362671	1288.159668	1276.996948	-3.387263
200.066422	1276.029175	1290.396362	1278.717651	18.712616
200.449142	1272.996338	1293.257080	1280.739380	38.216972
200.831848	1272.308105	1295.923950	1280.266235	33.698265
201.214508	1273.082520	1297.494019	1278.308960	21.409748
201.597137	1270.372437	1297.322144	1280.094116	36.073414
201.979736	1270.437012	1300.462280	1278.394897	26.503962
202.362274	1269.383057	1301.989380	1275.641968	19.195391
202.744827	1266.500977	1300.075073	1274.695557	24.407448
203.127319	1266.672974	1301.387085	1274.545044	22.676859
203.509796	1265.511597	1299.752441	1272.630737	20.791370
203.892227	1264.479126	1296.504761	1269.856323	16.790291
204.274643	1262.263794	1295.128174	1267.038696	14.529111
204.657013	1263.597534	1293.515137	1264.457886	2.875737
205.039352	1263.640503	1292.095581	1262.801758	-2.947611
205.421661	1264.092163	1289.751221	1263.124390	-3.771664
205.803940	1264.909424	1291.364380	1261.532715	-12.763994
206.186188	1265.898804	1292.547241	1260.758545	-19.289156
206.568405	1264.973755	1292.353638	1261.984375	-10.918161
206.950592	1264.758911	1290.504028	1260.328247	-17.209726
207.332748	1262.328491	1288.654297	1259.166870	-12.009589
207.714859	1261.661621	1287.793945	1256.112549	-21.234514
208.096939	1260.478760	1288.116577	1257.489136	-10.817149
208.478989	1260.220581	1289.772583	1257.897827	-7.859887
208.861008	1258.392456	1290.697388	1256.908325	-4.594131
209.243011	1256.542847	1291.041504	1256.220093	-0.935555
209.624969	1254.563965	1292.740723	1255.617920	2.760725
210.006897	1256.112671	1290.503906	1254.348877	-5.128615
210.388794	1252.155273	1290.288940	1255.639526	9.136947
210.770645	1254.585693	1292.611816	1255.553467	2.545023
211.152481	1253.273560	1292.353638	1256.757935	8.915988
211.534286	1252.133789	1291.041626	1255.402832	8.402017
211.916061	1251.208862	1291.536255	1255.897583	11.626640
212.297791	1251.488403	1293.773193	1256.542847	11.953337
212.679489	1250.240967	1292.418213	1258.457031	19.479851
213.061157	1249.832275	1292.224731	1258.198975	19.736292
213.442795	1248.907471	1290.891113	1259.102295	24.282848
213.824402	1249.208618	1290.891113	1262.371460	31.578825
214.205963	1249.251587	1292.998901	1262.263916	29.744293
214.587524	1250.778687	1292.697754	1264.027588	31.605907
214.969025	1250.004395	1290.955688	1264.586792	35.609123
215.350510	1251.638916	1293.730347	1264.694214	31.016521
215.731949	1254.628540	1297.343628	1265.103027	24.521751
216.113358	1253.961792	1301.021484	1267.275269	28.290615
216.494736	1254.542603	1302.505493	1267.490356	26.995358
216.876083	1258.156006	1306.893066	1267.726929	19.637875
217.257401	1258.543091	1309.237427	1268.436768	19.516336
217.638702	1260.457275	1314.420898	1269.254028	16.301264
218.019943	1260.607910	1316.421265	1266.501099	10.558743
218.401169	1260.048706	1319.152710	1267.425903	12.481722
218.782349	1262.521973	1321.927246	1267.296875	8.037843
219.163498	1263.059692	1323.755371	1266.264526	5.280169
219.544632	1262.479004	1325.282593	1267.511841	8.013614
219.925705	1262.070313	1328.229248	1268.393677	9.557838
220.306778	1261.704712	1329.971313	1266.371948	6.836779
220.687805	1260.328247	1330.100464	1263.661987	4.778034
221.068802	1259.102417	1331.304810	1264.629761	7.655347
221.449738	1259.575439	1335.176270	1264.823364	6.941623
221.830673	1260.844482	1340.144653	1266.092285	6.617644
222.211563	1260.564819	1345.908691	1269.490601	10.458609
222.592438	1260.005615	1350.704956	1269.727051	10.718309
222.973267	1257.661133	1356.189453	1271.189941	13.730884
223.354065	1257.489136	1360.684570	1271.577026	13.651661
223.734848	1257.983765	1367.545776	1272.738281	13.466818
224.115555	1257.058838	1371.632324	1273.189941	14.079264
224.496262	1259.274292	1378.923584	1275.792480	13.805505
224.876923	1259.166748	1387.118164	1276.975464	13.918343
225.257568	1258.413940	1396.839844	1278.954224	14.838468
225.638168	1257.467651	1405.399902	1281.750244	16.414671
226.018723	1255.510376	1415.358154	1284.180664	17.935993
226.399277	1256.671875	1429.618042	1288.159668	18.206701
226.779785	1256.284668	1448.308594	1292.482666	18.850775
227.160263	1256.564331	1469.364868	1293.923706	17.556053
227.540695	1255.811523	1498.056519	1300.096558	18.281094
227.921112	1255.682495	1535.050659	1307.065308	18.392508
228.301483	1256.327637	1587.142944	1319.260254	19.023491
228.681824	1255.940552	1654.613770	1332.917847	19.308369
229.062134	1257.187988	1742.345215	1353.845215	19.922867
229.442413	1256.822388	1835.195313	1368.169678	19.251816
229.822647	1256.736450	1917.162231	1383.160767	19.142851
230.202881	1256.370850	1976.868774	1393.893311	19.087141
230.583054	1255.919067	2022.057129	1400.969360	18.932657
230.963196	1257.231079	2059.610352	1409.163940	18.935293
231.343292	1256.671875	2089.786133	1415.853027	19.106762
231.723404	1257.381592	2115.445068	1421.552612	19.132736
232.103439	1258.865601	2118.628174	1425.574585	19.390120
232.483459	1259.683105	2104.992188	1422.369751	19.245817
232.863434	1258.586060	2070.450195	1413.207275	19.045208
233.243393	1258.285034	2015.389771	1401.184448	18.874458
233.623306	1259.682983	1957.339478	1392.021973	18.969076
234.003174	1262.436035	1916.216064	1382.902466	18.426142
234.383041	1264.672852	1894.191772	1377.826660	17.974648
234.762848	1262.823120	1883.179688	1374.471436	17.997442
235.142639	1262.758667	1874.318359	1372.621704	17.964401
235.522385	1263.877075	1869.134888	1372.686279	17.977331
235.902115	1263.984619	1861.284424	1371.116211	17.935984
236.281799	1261.790894	1867.285156	1368.771851	17.668369
236.661438	1260.521851	1877.587524	1371.180786	17.933088
237.041077	1259.962646	1886.642456	1373.224121	18.073261
237.420654	1258.521606	1899.052368	1374.407104	18.092106
237.800217	1259.618530	1908.171875	1375.009277	17.792021
238.179733	1258.392456	1913.032715	1375.396362	17.873009
238.559219	1255.639526	1920.151855	1375.740356	18.073528
238.938690	1257.015991	1925.270630	1376.966431	17.949810
239.318100	1257.059082	1934.110840	1379.504395	18.085073
239.697510	1257.037476	1949.876099	1383.440308	18.244196
240.076859	1259.962524	1975.535156	1386.257935	17.649559
240.456177	1263.360840	2010.206177	1390.710083	17.051622
240.835464	1266.350464	2052.361816	1396.452637	16.552200
241.214722	1268.243286	2118.499023	1407.894897	16.424660
241.593948	1271.835083	2203.584961	1421.573975	16.070717
241.973129	1272.007080	2313.103760	1441.232300	16.254515
242.352295	1273.104004	2449.937988	1466.826904	16.461361
242.731415	1274.028809	2594.773438	1493.776489	16.638166
243.110519	1276.136597	2738.920410	1519.973389	16.669367
243.489578	1279.879028	2854.095703	1536.943237	16.329659
243.868607	1280.524292	2936.471680	1547.847778	16.143236
244.247604	1278.610107	2992.048340	1558.859863	16.355988
244.626541	1278.545654	3030.138916	1567.764160	16.511740
245.005493	1277.706665	3060.357910	1573.743286	16.606537
245.384369	1278.093872	3082.252930	1579.098755	16.683945
245.763229	1277.039917	3105.395264	1584.862915	16.836060
246.142059	1276.695801	3143.271240	1592.025269	16.893476
246.520859	1278.373413	3211.688232	1606.156128	16.954441
246.899612	1283.535278	3337.144531	1627.685547	16.758312
247.278336	1285.127075	3500.261475	1652.785522	16.597569
247.657043	1286.783081	3670.949219	1683.283936	16.630589
248.035690	1292.074097	3825.097412	1711.975464	16.577082
248.414322	1294.633545	3956.468994	1733.375854	16.482698
248.792908	1296.332642	4057.556885	1749.485596	16.411306
249.171478	1296.440308	4134.491211	1761.895630	16.400528
249.550003	1297.472656	4170.065430	1767.853516	16.374784
249.928482	1299.150269	4163.354980	1766.089844	16.302591
250.306961	1300.655762	4105.949707	1753.937866	16.158096
250.685364	1299.193237	3984.687500	1729.182129	16.011538
251.063782	1295.364746	3801.374268	1694.769165	15.937865
251.442123	1292.891357	3596.402344	1660.356323	15.952386
251.820450	1288.761841	3427.220215	1633.385132	16.115501
252.198761	1285.148438	3321.271729	1610.737183	15.990621
252.576996	1283.771973	3252.962402	1598.993774	16.007685
252.955246	1284.266724	3202.784180	1590.820679	15.978690
253.333420	1282.395508	3155.960938	1580.174316	15.893697
253.711578	1282.094360	3120.386719	1572.194824	15.780975
254.089706	1281.234009	3094.641602	1566.753418	15.744911
254.467804	1278.696167	3074.488281	1565.441284	15.967612
254.845871	1278.954224	3059.067383	1563.397949	15.978969
255.223877	1279.362915	3035.322754	1559.612549	15.959911
255.601898	1279.986572	3003.275635	1555.031372	15.960457
255.979828	1278.072266	2957.786133	1545.696899	15.932752
256.357727	1275.921509	2903.155518	1540.126465	16.236444
256.735657	1277.986328	2861.386719	1531.501587	16.010813
257.113525	1275.469849	2853.579346	1529.243286	16.080851
257.491333	1275.814087	2883.432617	1535.996582	16.184343
257.869110	1277.921875	2942.601318	1545.438721	16.070171
258.246887	1279.448975	3030.805664	1561.634399	16.112391
258.624573	1278.932617	3157.036133	1584.734009	16.282457
259.002289	1279.792969	3341.295898	1615.598145	16.289337
259.379944	1281.255493	3600.080322	1659.366821	16.306162
259.757538	1282.567505	3934.035400	1712.126099	16.200785
260.135162	1288.331665	4299.199219	1771.875366	16.059946
260.512665	1292.977417	4625.433105	1822.957031	15.903576
260.890228	1291.622437	4865.914551	1864.187988	16.018991
261.267700	1292.805298	5017.804199	1890.212769	16.037788
261.645142	1295.235718	5103.686035	1903.547974	15.972698
262.022552	1294.805542	5155.219238	1913.247925	16.020107
262.399994	1293.084839	5181.330078	1915.097534	15.997260
262.777313	1296.268066	5170.166992	1910.043091	15.843858
263.154602	1296.010010	5093.103516	1897.632935	15.844301
263.531921	1295.536865	4939.601074	1870.016724	15.764812
263.909149	1293.988281	4691.892578	1830.226929	15.781452
264.286377	1290.611450	4405.685547	1781.296143	15.751943
264.663574	1287.385254	4147.826172	1740.667480	15.846586
265.040710	1289.364136	3970.470947	1710.749634	15.716847
265.417816	1288.245605	3871.103271	1692.726074	15.660192
265.794891	1288.611206	3844.691650	1688.144653	15.630707
266.171936	1288.976929	3865.167236	1689.005005	15.527892
266.548950	1289.170532	3915.560791	1697.995361	15.566036
266.925934	1287.621948	3973.847412	1705.157471	15.543576
267.302887	1286.912231	4037.941162	1714.018799	15.525340
267.679810	1286.202515	4101.884766	1726.149292	15.624874
268.056671	1288.869385	4178.711426	1735.892456	15.468772
268.433502	1289.901733	4260.613770	1750.087769	15.490767
268.810333	1290.138184	4344.064453	1760.110474	15.389117
269.187073	1288.159546	4420.568848	1772.090576	15.449164
269.563843	1291.127808	4495.244629	1781.683105	15.310157
269.940521	1290.525513	4550.649414	1788.888306	15.286621
270.317200	1290.826538	4602.333496	1796.889404	15.281952
270.693848	1291.837402	4668.664063	1806.610840	15.244295
271.070435	1295.063599	4802.809570	1824.161377	15.083696
271.447021	1298.569458	4975.347168	1849.003418	14.970552
271.823547	1300.892456	5153.003418	1874.598022	14.893278
272.200043	1301.236450	5297.623535	1894.062622	14.834052
272.576538	1301.731201	5417.380371	1910.279785	14.786210
272.952972	1303.602417	5524.404297	1926.539917	14.758748
273.329346	1305.452026	5626.266602	1939.788940	14.680957
273.705688	1305.495117	5704.082520	1954.263794	14.749478
274.082062	1306.118896	5763.487793	1964.867188	14.778859
274.458344	1304.914429	5788.759766	1968.760132	14.805277
274.834595	1307.861206	5770.413574	1962.522705	14.670114
275.210846	1304.936035	5690.102051	1952.413940	14.765185
275.587006	1301.774292	5586.046387	1935.981934	14.803160
275.963165	1300.913818	5493.390137	1922.109253	14.816909
276.339294	1300.182495	5446.760742	1920.367065	14.956539
276.715393	1300.763184	5423.337891	1913.291016	14.857895
277.091461	1301.064331	5414.713867	1910.258301	14.809088
277.467438	1302.591553	5411.982422	1910.946533	14.804019
277.843445	1302.526978	5416.176270	1911.312134	14.799150
278.219452	1303.602417	5431.188965	1910.150513	14.694983
278.595337	1304.226196	5454.288574	1913.183472	14.673449
278.971191	1304.570313	5486.980957	1917.872192	14.663837
279.347046	1307.344849	5512.983887	1922.367310	14.623757
279.722870	1309.753784	5537.567871	1925.098877	14.554688
280.098663	1310.377441	5561.312988	1926.755127	14.499812
280.474396	1310.979614	5597.123535	1925.034302	14.326506
280.850098	1312.055054	5649.495605	1933.164185	14.319715
281.225800	1313.108887	5724.945801	1946.563721	14.358074
281.601440	1313.517578	5833.131348	1957.876953	14.256957
281.977051	1313.797119	5982.203613	1972.997192	14.120452
282.352600	1314.700439	6137.964355	1994.247192	14.088941
282.728149	1317.496582	6282.090332	2014.142212	14.032279
283.103668	1317.475098	6392.448242	2028.917969	14.018653
283.479156	1319.604370	6480.501953	2041.091797	13.979883
283.854553	1319.668945	6564.039551	2050.920898	13.943560
284.229950	1320.851929	6661.018555	2064.535400	13.926223
284.605347	1322.895142	6765.247070	2082.795898	13.962727
284.980652	1320.787354	6863.861328	2098.668945	14.033397
285.355988	1320.916382	6953.184570	2109.551758	14.002092
285.731201	1319.260254	7031.666992	2120.391846	14.024414
286.106445	1319.776489	7098.621582	2132.371826	14.061552
286.481659	1320.228027	7166.027832	2142.136475	14.059812
286.856781	1320.464722	7232.853516	2149.793213	14.026961
287.231934	1318.894653	7298.947266	2158.783691	14.044844
287.607025	1316.464233	7346.716797	2164.677002	14.065958
287.982056	1316.894409	7365.557617	2168.613037	14.081105
288.357086	1315.732910	7357.599609	2164.590820	14.049597
288.732086	1311.667969	7326.048340	2159.880615	14.103076
289.107025	1310.850708	7290.688965	2152.804443	14.079874
289.481934	1310.571045	7261.221680	2148.481445	14.080989
289.856842	1311.818359	7236.639160	2148.373535	14.119502
290.231659	1311.022583	7237.713867	2147.448975	14.112872
290.606506	1311.689331	7248.296387	2150.847168	14.135311
290.981262	1312.184082	7264.535645	2154.374268	14.148865
291.355988	1309.947144	7285.590820	2160.525635	14.234090
291.730713	1311.646362	7312.411133	2167.623535	14.264468
292.105377	1310.377319	7339.360840	2173.925537	14.323280
292.480011	1310.484985	7357.492188	2183.840576	14.442774
292.854614	1312.549683	7364.181152	2189.690674	14.494290
293.229187	1313.861694	7380.162109	2199.821045	14.604608
293.603729	1313.517578	7405.820801	2213.005371	14.764331
293.978241	1312.506714	7443.051270	2230.448730	14.973254
294.352692	1314.033691	7473.033203	2250.279053	15.201258
294.727081	1313.603638	7494.950195	2271.227539	15.492156
295.101501	1311.560425	7516.952637	2296.994385	15.880285
295.475830	1314.722168	7571.195801	2327.836914	16.193064
295.850189	1317.367676	7669.617676	2367.325684	16.528915
296.224457	1320.572266	7832.454590	2417.073730	16.838472
296.598694	1323.067261	8046.718262	2479.683838	17.202211
296.972931	1324.938354	8301.458984	2549.735352	17.555986
297.347107	1326.938599	8538.541016	2617.743896	17.899008
297.721283	1328.874390	8714.519531	2670.890381	18.170599
298.095367	1331.175781	8806.853516	2711.088867	18.458702
298.469452	1331.648926	8820.446289	2734.941162	18.738552
298.843475	1328.057129	8795.217773	2751.050781	19.056690
299.217529	1329.046387	8756.138672	2759.654053	19.262016
299.591492	1328.444214	8698.583984	2764.170410	19.480312
299.965424	1325.196533	8618.014648	2761.310303	19.692163
300.339325	1323.841553	8485.374023	2751.244385	19.931528
300.713196	1320.120605	8301.758789	2725.670898	20.132099
301.087036	1318.830078	8080.785645	2694.849854	20.349436
301.460815	1318.313965	7865.405762	2659.920898	20.491648
301.834564	1318.830200	7684.758301	2634.993164	20.675116
302.208282	1315.969482	7537.729980	2614.646729	20.873146
302.582001	1314.270386	7416.811035	2599.569336	21.061703
302.955658	1316.012573	7311.185547	2584.406250	21.156916
303.329254	1312.506714	7221.174805	2569.178467	21.268274
303.702820	1310.958130	7142.068359	2557.090820	21.370419
304.076416	1310.807495	7075.995117	2549.154541	21.479736
304.449921	1307.430786	7021.515137	2544.293945	21.645868
304.823395	1309.603027	6969.917480	2539.153320	21.722296
305.196838	1308.527588	6920.384277	2533.668945	21.831303
305.570251	1308.183594	6865.559570	2529.259521	21.972166
305.943604	1304.828369	6805.509766	2523.839600	22.161095
306.316986	1304.312256	6761.246582	2519.172363	22.262684
306.690277	1306.420044	6728.404297	2517.107666	22.329235
307.063507	1305.581177	6712.079590	2515.193604	22.373306
307.436768	1305.989746	6721.134277	2526.937012	22.546902
307.809937	1307.258789	6748.900391	2538.185791	22.620508
308.183136	1308.011597	6803.165527	2552.187256	22.641325
308.556244	1310.054810	6877.411133	2572.189697	22.670273
308.929321	1309.172974	6967.895508	2595.289307	22.728033
309.302399	1310.226929	7060.530762	2620.583008	22.787598
309.675446	1309.043945	7157.489258	2644.628906	22.836580
310.048401	1308.054565	7253.113770	2670.352539	22.914793
310.421356	1309.237427	7348.910645	2695.280273	22.948971
310.794281	1307.839355	7451.095215	2723.606201	23.045872
311.167145	1308.248047	7564.163574	2756.406006	23.148617
311.539978	1312.119507	7661.917480	2781.118896	23.134584
311.912781	1313.324097	7733.152832	2802.820557	23.201498
312.285553	1312.012207	7749.498047	2815.036865	23.348007
312.658295	1312.399292	7722.591797	2811.617188	23.388033
313.031006	1312.227295	7670.456055	2802.175293	23.433382
313.403656	1311.839966	7615.524902	2789.270508	23.437569
313.776276	1313.603638	7565.497070	2783.570801	23.512352
314.148865	1316.313599	7539.773438	2779.635010	23.512989
314.521454	1316.442627	7537.837402	2780.172607	23.527361
314.893982	1316.958862	7538.117188	2774.946289	23.435949
315.266449	1319.109619	7502.563965	2766.579590	23.408760
315.638885	1316.851440	7438.685547	2752.319336	23.448332
316.011322	1317.281494	7355.319824	2729.628662	23.390829
316.383667	1318.270752	7282.773438	2709.841309	23.330872
316.756042	1318.722534	7224.507813	2697.646240	23.348694
317.128326	1319.754883	7172.802734	2687.774170	23.372768
317.500610	1316.872803	7118.904297	2674.417725	23.397753
317.872833	1315.517700	7058.530762	2657.404541	23.365555
318.245087	1312.592651	6980.606445	2638.993896	23.401518
318.617218	1311.775391	6885.283203	2614.539063	23.374214
318.989319	1309.839722	6806.929199	2599.719971	23.464787
319.361420	1307.043823	6756.320801	2590.794189	23.558178
319.733490	1306.484497	6723.543457	2580.212158	23.513269
320.105530	1303.193726	6701.368652	2578.899902	23.632175
320.477509	1298.741699	6679.085938	2574.297363	23.707697
320.849457	1295.622925	6653.877930	2566.489990	23.717928
321.221375	1294.181763	6644.543945	2561.113037	23.679356
321.593231	1295.364746	6637.381348	2562.382324	23.717964
321.965088	1295.988525	6641.230957	2562.898193	23.701633
322.336884	1297.451050	6650.199707	2563.436035	23.651119
322.708618	1298.461914	6680.289551	2570.296875	23.632027
323.080414	1300.526733	6712.143555	2577.717041	23.600901
323.452118	1301.537598	6778.215820	2589.955322	23.525532
323.823761	1302.053833	6891.305176	2615.850830	23.505777
324.195343	1303.752930	7021.881348	2645.575195	23.466110
324.566925	1308.140503	7158.586426	2673.427979	23.336470
324.938507	1310.484863	7291.462891	2702.743408	23.278109
325.310059	1310.893677	7398.078125	2729.994141	23.312920
325.681519	1313.496216	7515.812988	2751.738525	23.188791
326.052948	1312.979980	7614.276855	2772.752197	23.166218
326.424408	1312.786377	7704.826172	2791.313477	23.130754
326.795776	1312.786255	7749.067383	2799.293213	23.095743
327.167084	1309.667603	7759.735840	2800.411377	23.112062
327.538391	1308.957886	7717.257813	2787.721680	23.075758
327.909668	1310.183716	7621.181641	2765.073975	23.053251
328.280884	1310.743042	7526.180176	2740.489990	23.003160
328.652100	1311.216187	7433.007324	2720.444336	23.019867
329.023254	1311.689331	7353.792480	2701.517334	23.002388
329.394348	1310.377441	7294.752930	2679.858887	22.884283
329.765442	1308.334106	7218.937500	2661.813721	22.899178
330.136475	1307.710449	7146.906738	2646.693604	22.930950
330.507538	1307.065308	7068.682617	2626.067383	22.892914
330.878479	1305.237061	7011.600098	2611.614014	22.893337
331.249420	1306.183472	6968.970703	2598.472656	22.820726
331.620331	1307.000732	6957.249512	2592.278076	22.747269
331.991211	1306.032837	6973.101074	2590.363770	22.663057
332.362030	1306.054321	6997.232910	2595.762451	22.661530
332.732819	1303.387329	7032.440918	2601.204102	22.653248
333.103577	1303.451782	7069.478027	2610.043945	22.660183
333.474304	1304.312256	7093.954590	2623.701416	22.788784
333.845001	1305.193970	7117.806641	2628.712891	22.769775
334.215668	1306.075806	7138.390625	2633.143555	22.753706
334.586273	1307.280396	7167.339355	2643.058838	22.794624
334.956818	1307.753540	7190.611328	2650.758789	22.829130
335.327362	1309.108521	7225.347168	2661.017822	22.850824
335.697876	1309.818237	7243.090820	2666.997070	22.874035
336.068329	1310.441895	7256.706055	2673.965576	22.930761
336.438751	1310.312988	7261.888672	2677.557373	22.972813
336.809174	1313.345581	7257.523438	2679.342529	22.980419
337.179504	1315.646973	7261.846680	2678.740479	22.923777
337.549896	1316.485840	7286.837891	2679.041504	22.822033
337.920135	1315.797607	7324.413574	2692.548584	22.912947
338.290375	1315.668457	7372.655762	2701.281006	22.876266
338.660614	1316.980347	7418.403320	2711.045898	22.848204
339.030792	1318.636475	7470.968262	2719.584229	22.771004
339.400940	1318.249390	7504.671875	2726.208740	22.758862
339.771027	1317.582642	7537.944824	2734.747559	22.782675
340.141083	1319.088257	7578.401367	2741.888184	22.730928
340.511139	1319.712036	7612.470215	2745.372559	22.655575
340.881134	1318.528931	7659.206543	2753.008057	22.623436
341.251068	1318.141846	7686.134766	2761.224121	22.661491
341.621002	1319.733276	7708.438965	2766.923584	22.652325
341.990875	1323.131714	7728.937012	2769.870361	22.584806
342.360718	1325.304077	7735.474609	2772.150146	22.571102
342.730560	1324.400757	7744.852051	2773.720459	22.573486
343.100311	1326.293457	7763.907715	2779.376953	22.571770
343.470032	1328.272217	7813.010742	2788.173584	22.512880
343.839752	1330.057373	7885.707520	2803.358398	22.473759
344.209442	1330.982178	7960.534180	2824.543701	22.528847
344.579041	1331.993042	8052.932617	2848.546631	22.564608
344.948639	1334.509521	8144.105957	2870.785889	22.560461
345.318176	1334.853516	8244.891602	2892.336914	22.539433
345.687714	1334.552368	8335.805664	2911.457764	22.523188
346.057190	1333.756592	8412.267578	2929.782471	22.547482
346.426636	1331.971558	8482.621094	2947.032227	22.586210
346.796051	1332.552246	8530.927734	2958.625000	22.589441
347.165405	1330.508911	8543.187500	2963.636230	22.642452
347.534729	1331.261719	8527.056641	2961.162598	22.650742
347.904083	1331.498291	8478.491211	2951.849609	22.671791
348.273315	1331.261597	8410.589844	2936.815674	22.679470
348.642517	1330.874512	8338.624023	2914.920410	22.604202
349.011719	1329.304443	8267.605469	2899.176514	22.626175
349.380890	1329.691528	8203.016602	2885.497559	22.635420
349.749969	1329.261475	8157.311035	2879.475098	22.703608
350.119049	1329.390503	8122.855957	2870.936523	22.691601
350.488098	1330.616577	8108.423828	2867.021729	22.668175
350.857117	1329.541138	8104.294922	2866.656250	22.688869
351.226074	1331.283325	8127.136230	2868.785400	22.624123
351.595001	1330.100464	8150.601563	2879.367432	22.714855
351.963867	1329.304565	8194.585938	2889.734375	22.729292
352.332764	1331.240234	8246.764648	2897.262451	22.645025
352.701538	1330.745605	8309.115234	2914.769775	22.699059
353.070343	1332.810303	8385.533203	2931.782715	22.671703
353.439056	1333.756714	8478.707031	2951.935791	22.647871
353.807770	1335.348267	8577.084961	2972.540283	22.607725
354.176453	1337.864746	8670.364258	2996.199219	22.616224
354.545105	1340.381226	8772.077148	3019.643066	22.595943
354.913666	1344.833374	8899.576172	3048.528320	22.551331
355.282227	1346.661621	9039.055664	3086.791260	22.621431
355.650757	1349.651245	9191.590820	3122.408447	22.606106
356.019226	1352.554688	9350.427734	3159.789063	22.596437
356.387695	1353.350586	9525.352539	3204.117188	22.647652
356.756104	1359.179199	9727.140625	3253.263184	22.634953
357.124451	1362.641968	9968.611328	3314.475098	22.679991
357.492828	1364.685181	10213.868164	3378.698242	22.759312
357.861084	1369.115845	10435.530273	3438.189697	22.821302
358.229401	1372.191528	10625.790039	3483.850830	22.819870
358.597595	1372.944458	10758.193359	3520.909912	22.886610
358.965759	1374.062866	10865.517578	3546.740723	22.890881
359.333923	1377.073975	10958.734375	3567.882813	22.864607
359.702057	1379.246216	11091.374023	3596.811768	22.832951
360.070129	1382.429565	11249.199219	3636.687500	22.846970
360.438141	1384.451172	11443.826172	3682.434570	22.844196
360.806122	1385.612671	11654.196289	3734.613525	22.875608
361.174133	1389.699219	11906.572266	3794.577881	22.866859
361.542053	1394.022339	12192.563477	3862.564941	22.859962
361.909912	1397.442139	12476.599609	3926.744629	22.829376
362.277771	1399.184204	12736.912109	3989.505371	22.846918
362.645599	1402.862061	12921.149414	4031.897461	22.824883
363.013367	1404.152588	13021.571289	4060.653809	22.866535
363.381134	1404.346191	13047.337891	4071.471924	22.907562
363.748810	1400.732788	12986.578125	4061.299072	22.963938
364.116455	1398.990601	12855.375977	4032.263184	22.985193
364.484100	1396.818237	12650.535156	3988.365479	23.028368
364.851715	1394.904053	12370.671875	3924.572021	23.047754
365.219238	1388.322510	11973.160156	3832.646973	23.092697
365.586761	1382.493896	11498.027344	3720.568604	23.113707
365.954224	1378.321289	11039.109375	3609.823486	23.098553
366.321686	1372.342041	10633.854492	3513.015869	23.113651
366.689117	1367.481323	10359.626953	3447.674316	23.133444
367.056458	1363.287231	10173.711914	3401.797852	23.137484
367.423737	1361.437500	10042.621094	3368.868896	23.123938
367.791077	1363.050659	9931.187500	3340.757813	23.082115
368.158295	1360.985840	9845.670898	3320.002441	23.088854
368.525543	1359.157593	9765.295898	3299.311768	23.080206
368.892700	1357.910156	9695.201172	3278.857910	23.040430
369.259827	1353.995728	9637.989258	3260.640381	23.016010
369.626953	1353.866699	9598.737305	3246.660400	22.957226
369.994019	1351.758911	9565.443359	3239.175781	22.978931
370.361053	1352.275146	9548.214844	3233.841553	22.957300
370.728027	1352.189087	9533.718750	3229.217285	22.942265
371.094971	1351.780396	9534.988281	3228.830322	22.937824
371.461914	1352.769775	9558.130859	3234.788086	22.936447
371.828796	1351.737427	9594.414063	3245.800049	22.978733
372.195618	1350.339355	9626.719727	3255.972900	23.024961
372.562408	1351.974121	9658.831055	3266.963867	23.053120
372.929199	1351.586792	9693.179688	3275.459961	23.063620
373.295898	1355.501343	9733.291992	3285.031006	23.031485
373.662598	1356.060547	9780.587891	3296.731201	23.035959
374.029236	1356.576660	9817.689453	3304.517090	23.022270
374.395844	1356.877808	9856.899414	3311.851318	22.999630
374.762421	1355.823853	9897.225586	3320.024170	22.996231
375.128967	1357.114380	9936.629883	3328.906982	22.982563
375.495483	1354.533447	9986.249023	3339.338135	22.994324
375.861908	1355.931519	10070.731445	3358.459229	22.978470
376.228333	1357.974731	10203.887695	3386.097412	22.927229
376.594727	1358.942505	10389.137695	3427.779541	22.910212
376.961090	1361.545044	10614.305664	3481.786133	22.914688
377.327393	1363.480713	10855.839844	3540.288086	22.932205
377.693665	1365.072388	11066.941406	3595.972412	22.994537
378.059906	1364.427246	11233.047852	3639.311523	23.051693
378.426086	1365.932739	11330.974609	3667.701660	23.098438
378.792267	1369.825684	11394.444336	3686.090820	23.105766
379.158386	1371.030151	11416.447266	3689.639893	23.081270
379.524445	1369.976318	11407.844727	3687.832764	23.091122
379.890503	1369.309448	11373.172852	3678.283447	23.080824
380.256531	1369.072998	11302.153320	3662.324463	23.087013
380.622467	1364.900513	11182.784180	3635.762451	23.129850
380.988403	1360.878418	11019.000977	3598.187744	23.165052
381.354279	1356.146606	10836.203125	3555.429688	23.199051
381.720154	1352.726807	10673.344727	3515.704102	23.206371
382.085968	1351.909424	10543.047852	3485.872803	23.217617
382.451752	1349.995239	10486.180664	3472.494629	23.231791
382.817474	1345.026855	10469.597656	3469.354492	23.281399
383.183197	1343.693359	10503.063477	3479.226807	23.315287
383.548859	1345.500000	10561.652344	3495.679932	23.330561
383.914490	1344.467651	10627.725586	3511.703369	23.345638
384.280060	1345.672119	10690.206055	3527.899414	23.352982
384.645599	1349.844727	10754.623047	3540.460205	23.292580
385.011108	1351.522339	10825.126953	3558.871338	23.299992
385.376617	1353.823730	10908.878906	3577.604736	23.273346
385.742035	1354.684082	11003.621094	3596.338135	23.232134
386.107452	1356.727417	11107.333984	3618.104004	23.192162
386.472778	1357.028442	11198.656250	3639.741455	23.194464
386.838135	1359.932007	11293.549805	3664.217285	23.196836
387.203430	1361.437622	11367.687500	3682.714111	23.198265
387.568634	1361.286987	11435.739258	3695.532959	23.169956
387.933838	1362.233276	11474.819336	3706.416260	23.180847
388.299042	1361.329956	11511.188477	3715.234375	23.191500
388.664124	1358.791992	11539.451172	3720.310303	23.196123
389.029236	1358.705933	11556.485352	3723.364746	23.187977
389.394318	1358.598511	11564.163086	3729.085693	23.227400
389.759308	1359.050049	11561.776367	3732.182861	23.259790
390.124298	1359.931885	11585.113281	3736.893066	23.246151
390.489227	1360.405151	11632.730469	3748.571777	23.248549
390.854126	1363.179688	11712.761719	3764.014648	23.197411
391.218964	1363.287231	11838.283203	3792.728027	23.192762
391.583771	1363.588379	11981.677734	3827.377441	23.203693
391.948578	1364.190552	12133.137695	3862.886963	23.202791
392.313354	1365.201538	12250.250000	3890.654541	23.201118
392.678040	1366.061890	12350.002930	3920.529053	23.256382
393.042694	1366.363037	12448.102539	3944.445557	23.264240
393.407349	1366.793091	12559.469727	3971.072754	23.267712
393.771942	1366.276855	12693.099609	4004.517822	23.291979
394.136505	1365.739136	12809.715820	4037.360840	23.345221
394.501007	1365.158325	12885.081055	4059.320313	23.386980
394.865479	1362.362427	12878.089844	4061.793701	23.441256
395.229919	1360.469604	12786.056641	4044.522461	23.491596
395.594360	1360.104004	12648.211914	4013.357178	23.504854
395.958710	1358.168213	12487.438477	3979.009277	23.549082
396.323029	1359.523315	12344.819336	3945.478027	23.540146
396.687286	1358.146729	12222.093750	3914.657227	23.532059
397.051544	1360.039551	12111.457031	3889.191406	23.523891
397.415771	1359.179199	11980.452148	3859.036865	23.536327
397.779938	1358.318726	11827.401367	3824.925537	23.560869
398.144043	1355.673340	11671.833984	3785.566162	23.554237
398.508148	1356.469116	11518.610352	3748.206787	23.535765
398.872192	1356.189575	11394.616211	3716.976563	23.517502
399.236237	1355.350830	11314.026367	3694.737305	23.490940
399.600189	1356.189575	11257.115234	3676.885742	23.439184
399.964111	1356.856323	11216.551758	3667.314941	23.433367
400.328003	1354.425903	11190.957031	3659.571777	23.434542
400.691925	1356.275635	11172.675781	3658.474854	23.452581
401.055695	1353.866699	11166.674805	3654.753906	23.447794
401.419495	1353.544067	11164.954102	3649.978760	23.405754
401.783234	1353.888184	11182.396484	3650.301514	23.364822
402.146942	1355.823853	11181.772461	3654.000977	23.388859
402.510620	1354.533325	11216.336914	3659.034180	23.367947
402.874237	1354.339844	11263.202148	3669.314941	23.362673
403.237823	1355.866943	11339.016602	3687.252441	23.353207
403.601379	1355.888428	11444.148438	3717.922852	23.413696
403.964874	1355.372192	11595.048828	3751.239014	23.397875
404.328369	1356.146484	11759.886719	3794.233643	23.434717
404.691772	1357.630615	11933.800781	3836.109619	23.434561
405.055176	1357.501465	12084.485352	3880.609619	23.521132
405.418549	1358.426392	12229.471680	3918.421631	23.548750
405.781860	1359.200684	12337.485352	3946.123535	23.563997
406.145142	1360.426636	12448.811523	3968.986572	23.525158
406.508362	1362.254761	12518.819336	3986.106445	23.518456
406.871552	1361.136353	12561.362305	3999.075928	23.552557
407.234741	1361.867554	12562.030273	4002.603760	23.577660
407.597870	1360.792236	12520.647461	3993.096924	23.587265
407.960938	1362.340820	12456.339844	3976.385254	23.562689
408.323975	1362.663574	12370.886719	3957.071045	23.567905
408.686981	1360.727783	12293.264648	3933.864014	23.536497
409.049957	1361.416016	12241.559570	3916.162598	23.480818
409.412903	1363.007690	12215.985352	3912.377197	23.490047
409.775787	1364.405762	12229.450195	3917.904785	23.501965
410.138611	1363.459351	12273.197266	3925.862549	23.487303
410.501434	1364.298218	12328.452148	3938.230225	23.475883
410.864227	1366.771606	12373.488281	3950.124023	23.470692
411.226929	1367.717896	12423.409180	3962.856445	23.473328
411.589630	1369.524536	12473.394531	3977.460205	23.486727
411.952271	1370.793457	12497.547852	3988.708740	23.528114
412.314911	1371.116089	12522.303711	3997.312256	23.550821
412.677490	1370.599976	12536.693359	4003.162598	23.576397
413.040009	1373.675659	12560.458984	4008.174072	23.550098
413.402496	1372.557129	12553.318359	4008.432129	23.575092
413.764984	1368.427612	12534.865234	4001.291992	23.578373
414.127380	1367.889893	12502.602539	4000.474365	23.643038
414.489777	1366.900635	12490.407227	4002.066162	23.690062
414.852112	1367.459839	12512.194336	4004.152100	23.658638
415.214386	1366.276855	12548.994141	4014.863037	23.684639
415.576660	1366.018799	12629.650391	4033.058838	23.678331
415.938904	1364.233643	12746.977539	4062.739746	23.706991
416.301086	1366.900635	12896.694336	4098.034668	23.687622
416.663208	1370.793579	13069.619141	4146.578125	23.727037
417.025299	1371.159180	13253.083984	4197.767578	23.789146
417.387390	1373.374512	13469.753906	4254.161133	23.815281
417.749420	1380.472168	13732.582031	4323.353027	23.824926
418.111389	1384.580200	14027.824219	4397.641602	23.831396
418.473328	1387.720337	14356.853516	4476.404297	23.815657
418.835266	1391.333740	14718.684570	4571.061035	23.858660
419.197144	1397.441895	15121.508789	4671.826172	23.858704
419.558960	1401.292114	15548.528320	4776.850098	23.860195
419.920746	1408.045532	16017.491211	4898.026855	23.888529
420.282471	1412.325562	16561.236328	5034.236816	23.908722
420.644226	1418.304810	17156.554688	5181.158203	23.908970
421.005920	1422.219238	17755.876953	5332.145020	23.937845
421.367523	1427.273682	18320.054688	5476.635742	23.970961
421.729126	1429.531860	18822.029297	5606.092773	24.013578
422.090668	1432.177490	19260.212891	5715.568359	24.026152
422.452179	1434.156128	19616.773438	5817.903809	24.109552
422.813660	1435.876831	19942.878906	5903.957520	24.142649
423.175110	1438.242676	20241.583984	5985.300293	24.182178
423.536469	1438.930908	20520.156250	6064.041992	24.239069
423.897858	1439.425659	20782.404297	6129.706055	24.247972
424.259155	1439.124512	20923.882813	6170.851074	24.284246
424.620453	1437.791016	20975.201172	6192.724609	24.337584
424.981689	1438.092163	20959.500000	6190.444824	24.344313
425.342865	1438.715942	20913.107422	6184.400391	24.368847
425.704041	1441.017334	20834.367188	6165.839355	24.363106
426.065186	1441.318359	20749.023438	6157.193359	24.424835
426.426239	1441.447388	20644.773438	6129.963867	24.415127
426.787262	1439.941895	20466.019531	6095.078125	24.467134
427.148254	1437.102783	20225.689453	6041.093262	24.504187
427.509216	1434.994995	19907.519531	5967.922363	24.538752
427.870178	1432.973145	19504.158203	5872.276367	24.565645
428.231049	1430.155762	19086.945313	5774.156250	24.602438
428.591858	1426.585327	18670.699219	5671.713379	24.617838
428.952698	1421.509399	18269.832031	5579.874512	24.681183
429.313446	1416.842163	17885.699219	5486.013184	24.708277
429.674164	1412.239380	17541.742188	5401.895020	24.735144
430.034851	1408.862793	17206.625000	5319.863281	24.756674
430.395477	1408.174561	16918.267578	5249.596680	24.767241
430.756104	1406.539917	16688.412109	5192.836914	24.776394
431.116699	1404.991333	16488.386719	5147.003418	24.808819
431.477203	1406.174316	16316.538086	5109.601563	24.837940
431.837646	1405.937744	16210.290039	5091.383789	24.894341
432.198090	1405.442993	16155.550781	5081.597168	24.922899
432.558502	1405.980713	16141.225586	5086.393555	24.976936
432.918884	1408.196045	16152.410156	5093.728027	24.996464
433.279205	1407.335693	16212.224609	5115.515137	25.046993
433.639465	1406.496948	16264.639648	5142.400391	25.143810
433.999756	1405.593628	16348.177734	5168.059570	25.179485
434.359924	1404.410645	16430.123047	5195.052246	25.227699
434.720093	1404.518188	16499.076172	5220.926758	25.283342
435.080200	1403.464355	16569.537109	5240.391113	25.299410
435.440277	1401.679077	16644.814453	5265.168457	25.345764
435.800354	1398.495972	16696.929688	5286.805176	25.416388
436.160370	1396.302124	16723.988281	5305.065918	25.501328
436.520325	1393.333984	16741.214844	5311.238770	25.527334
436.880249	1391.785278	16744.398438	5320.078613	25.587132
437.240112	1393.635010	16742.140625	5325.390625	25.616537
437.599976	1393.355347	16763.734375	5339.543457	25.673981
437.959808	1397.248413	16810.578125	5364.406738	25.738489
438.319519	1396.538574	16871.531250	5389.227051	25.800907
438.679260	1397.011841	16968.898438	5418.564453	25.825726
439.038940	1398.001221	17101.580078	5467.021484	25.911419
439.398590	1401.313354	17284.636719	5522.447754	25.946297
439.758179	1403.593384	17510.082031	5588.692383	25.983932
440.117767	1407.679810	17808.658203	5675.370117	26.020950
440.477295	1412.691284	18135.470703	5773.962891	26.079824
440.836792	1416.992798	18487.625000	5877.416504	26.129223
441.196198	1416.627075	18806.761719	5974.783203	26.211161
441.555603	1421.165405	19081.398438	6060.191895	26.268208
441.914978	1420.154419	19270.431641	6120.909180	26.334352
442.274323	1422.004272	19408.857422	6174.722168	26.423286
442.633575	1425.854004	19502.654297	6219.738770	26.519543
442.992859	1430.349365	19538.033203	6239.289551	26.557457
443.352051	1429.618042	19510.417969	6250.795410	26.664623
443.711182	1431.231201	19432.322266	6245.096680	26.742073
444.070313	1430.263306	19310.414063	6224.663574	26.814095
444.429382	1427.660767	19152.394531	6198.833008	26.918159
444.788452	1426.649902	19016.162109	6180.207520	27.024956
445.147430	1428.886719	18932.904297	6171.904785	27.096739
445.506409	1427.617676	18915.289063	6175.281250	27.148632
445.865295	1427.380981	18997.214844	6210.447266	27.223173
446.224182	1430.048096	19166.203125	6274.002930	27.311192
446.583038	1428.607056	19404.511719	6349.281250	27.373724
446.941833	1427.725220	19672.609375	6439.701172	27.470583
447.300598	1428.564087	19946.794922	6532.551270	27.561960
447.659302	1429.467529	20195.962891	6616.045410	27.637434
448.018005	1432.112915	20390.330078	6686.720703	27.716784
448.376648	1434.435913	20546.457031	6749.029297	27.807594
448.735229	1433.812256	20616.380859	6782.776367	27.884502
449.093781	1430.155762	20626.341797	6803.401855	27.991219
449.452301	1426.327271	20563.126953	6804.262207	28.102585
449.810791	1426.456299	20426.488281	6784.517578	28.200277
450.169220	1422.499023	20185.425781	6727.844238	28.275682
450.527618	1420.004028	19889.474609	6659.577637	28.368835
450.885956	1415.831421	19574.554688	6593.075195	28.511057
451.244263	1413.293457	19276.238281	6520.098145	28.588818
451.602539	1410.927612	19023.753906	6465.553223	28.698549
451.960785	1408.432617	18834.052734	6428.151367	28.806541
452.318970	1408.174561	18676.830078	6396.383301	28.885912
452.677124	1405.507568	18535.242188	6375.284180	29.012571
453.035248	1404.324585	18393.332031	6346.979492	29.093252
453.393311	1406.131226	18235.076172	6319.341797	29.195000
453.751312	1404.216919	18067.550781	6287.681641	29.306650
454.109314	1406.432251	17921.660156	6268.604492	29.440540
454.467285	1404.862183	17778.740234	6244.945313	29.559784
454.825195	1404.432129	17644.810547	6217.135742	29.634184
455.183044	1402.474854	17489.566406	6189.132813	29.754652
455.540894	1400.797363	17304.662109	6152.159668	29.875519
455.898651	1399.248535	17107.042969	6112.542480	30.006083
456.256378	1395.871948	16915.341797	6072.796387	30.135851
456.614105	1394.301758	16754.355469	6042.189453	30.259581
456.971771	1392.602661	16626.273438	6027.112305	30.422804
457.329407	1389.247437	16578.355469	6026.208984	30.528200
457.686981	1388.881836	16595.927734	6051.738770	30.662477
458.044525	1384.881348	16716.048828	6103.357910	30.777020
458.402008	1386.731079	16913.148438	6185.412109	30.906559
458.759460	1390.258301	17222.691406	6304.780762	31.040854
459.116913	1395.850464	17682.341797	6473.296387	31.175812
459.474274	1400.883301	18285.017578	6687.624512	31.311888
459.831635	1406.840942	18900.771484	6913.953613	31.480135
460.188904	1411.508301	19491.898438	7128.259277	31.618515
460.546173	1418.562866	19993.939453	7311.379395	31.723804
460.903381	1425.251831	20382.978516	7466.538574	31.867147
461.260559	1430.177246	20662.236328	7592.166992	32.040199
461.617706	1433.424927	20856.863281	7682.092285	32.170761
461.974762	1433.037842	20902.890625	7730.334473	32.343834
462.331848	1433.016357	20853.939453	7747.110840	32.511814
462.688843	1426.671509	20652.968750	7712.977051	32.696392
463.045837	1421.208374	20278.253906	7622.729980	32.887028
463.402740	1416.068115	19744.960938	7479.464355	33.081085
463.759613	1410.131836	19186.871094	7322.820801	33.260818
464.116486	1404.905396	18641.621094	7177.276367	33.488811
464.473267	1399.055176	18194.984375	7057.734375	33.690777
464.830048	1397.205444	17837.132813	6968.520020	33.888924
465.186737	1396.474243	17553.250000	6901.715332	34.073887
465.543457	1391.742432	17325.523438	6858.419922	34.308727
465.900085	1392.796265	17206.626953	6849.858887	34.508163
466.256683	1391.161621	17162.019531	6868.248535	34.729164
466.613251	1393.592041	17192.710938	6912.641113	34.932636
466.969757	1393.721069	17282.013672	6974.262695	35.123608
467.326233	1393.893066	17380.392578	7046.056152	35.355850
467.682678	1394.430908	17445.085938	7103.848145	35.571239
468.039093	1393.979248	17487.242188	7155.639160	35.801689
468.395416	1392.366089	17481.046875	7190.632813	36.039417
468.751740	1390.365723	17475.798828	7220.657715	36.245789
469.108032	1387.333130	17453.904297	7250.295410	36.491684
469.464233	1386.924561	17425.257813	7277.912598	36.730679
469.820435	1387.462158	17371.595703	7299.312500	36.985744
470.176575	1388.903198	17264.826172	7297.828613	37.219414
470.532715	1390.709839	17116.185547	7287.354492	37.497402
470.888763	1389.871094	16959.392578	7270.879395	37.772568
471.244751	1389.957153	16821.849609	7254.554688	38.003101
471.600769	1388.838745	16735.945313	7265.523926	38.291813
471.956696	1391.419800	16686.154297	7289.419922	38.562290
472.312592	1395.119141	16715.039063	7350.609863	38.874165
472.668457	1394.172852	16788.876953	7430.878418	39.212872
473.024292	1395.613892	16909.494141	7525.018555	39.509167
473.380035	1399.872437	16996.687500	7609.050293	39.810547
473.735779	1402.711548	17086.396484	7688.802734	40.080448
474.091492	1400.130615	17172.923828	7775.565918	40.420460
474.447113	1398.689453	17280.419922	7868.415527	40.736908
474.802765	1400.238159	17379.853516	7967.826172	41.099789
475.158295	1401.227417	17497.501953	8074.785645	41.460266
475.513824	1401.205811	17608.527344	8175.163574	41.795666
475.869324	1400.495972	17745.513672	8288.318359	42.140194
476.224762	1399.420532	17873.398438	8409.192383	42.550571
476.580170	1401.743408	17999.607422	8522.045898	42.898911
476.935516	1402.668335	18130.783203	8646.039063	43.300579
477.290863	1401.721924	18340.294922	8798.789063	43.669956
477.646118	1399.807739	18551.289063	8963.605469	44.099972
478.001373	1403.163208	18806.695313	9148.552734	44.504700
478.356537	1404.561279	19087.570313	9339.781250	44.874825
478.711700	1408.927368	19371.455078	9534.192383	45.234531
479.066833	1412.863281	19646.175781	9731.055664	45.620850
479.421875	1416.003418	19939.740234	9941.124023	46.022686
479.776917	1418.713501	20251.736328	10166.313477	46.448196
480.131897	1422.756958	20583.023438	10399.826172	46.852531
480.486847	1425.187378	20960.789063	10663.944336	47.291897
480.841766	1427.617798	21395.488281	10963.852539	47.757893
481.196594	1431.403198	21904.089844	11303.615234	48.221378
481.551453	1438.608521	22567.785156	11709.170898	48.608440
481.906219	1446.028809	23387.111328	12208.802734	49.053066
482.260986	1455.320190	24480.345703	12872.347656	49.585297
482.615662	1465.364380	26038.882813	13770.136719	50.073307
482.970306	1480.312500	28242.232422	15049.177734	50.702137
483.324951	1502.057129	31073.486328	16781.392578	51.669250
483.679504	1528.103394	34178.042969	18819.322266	52.959419
484.034027	1552.192261	37240.316406	20855.273438	54.088249
484.388519	1577.485840	40007.261719	22641.470703	54.811623
484.742981	1599.682007	42335.035156	24107.738281	55.254356
485.097351	1615.727051	44198.640625	25275.841797	55.562462
485.451721	1625.018677	45581.304688	26192.962891	55.891766
485.806030	1633.750732	46583.941406	26894.470703	56.197136
486.160309	1640.482788	47246.304688	27416.644531	56.519459
486.514557	1645.494263	47545.160156	27779.355469	56.936935
486.868744	1646.569580	47432.246094	27900.857422	57.341705
487.222931	1643.171387	46820.234375	27673.085938	57.617546
487.577026	1636.890991	45926.082031	27153.173828	57.612888
487.931122	1628.933105	44990.953125	26600.482422	57.588528
488.285126	1619.964111	44104.308594	26157.306641	57.756199
488.639099	1612.952637	43301.371094	25816.681641	58.058640
488.993042	1607.553955	42603.714844	25574.007813	58.460239
489.346954	1604.542969	42024.195313	25377.744141	58.815948
489.700836	1601.617676	41487.574219	25212.587891	59.196201
490.054626	1597.423828	40928.410156	25036.779297	59.595142
490.408417	1590.670044	40378.378906	24852.476563	59.972111
490.762146	1584.217896	39816.289063	24680.500000	60.410751
491.115814	1583.056274	39386.949219	24599.392578	60.883503
491.469513	1578.711670	39061.570313	24575.281250	61.352230
491.823090	1576.281250	38661.800781	24496.882813	61.804722
492.176666	1572.173340	38210.628906	24376.398438	62.241226
492.530182	1567.678101	37734.078125	24233.669922	62.671410
492.883698	1562.967896	37229.519531	24064.617188	63.088940
493.237091	1558.687622	36680.738281	23871.455078	63.529228
493.590515	1550.321045	36093.078125	23635.232422	63.935001
493.943878	1543.266479	35411.636719	23307.125000	64.260132
494.297150	1537.846558	34507.351563	22849.240234	64.639717
494.650452	1529.049683	33330.281250	22213.076172	65.041588
495.003662	1512.875488	31807.943359	21317.310547	65.371811
495.356873	1500.314941	30131.712891	20327.123047	65.755814
495.710022	1487.066040	28584.187500	19416.169922	66.166084
496.063110	1476.828247	27306.437500	18680.531250	66.604584
496.416168	1468.074341	26367.935547	18168.876953	67.071869
496.769165	1463.084473	25714.408203	17829.736328	67.487663
497.122162	1457.449463	25311.005859	17653.242188	67.896767
497.475098	1456.632202	25029.080078	17560.820313	68.317848
497.828003	1456.223511	24893.019531	17571.142578	68.759048
498.180847	1454.029785	24823.205078	17602.544922	69.101776
498.533661	1454.416870	24769.218750	17635.732422	69.403610
498.886444	1453.621094	24713.750000	17686.708984	69.789330
499.239136	1451.964966	24632.236328	17701.376953	70.100182
499.591827	1449.900269	24482.648438	17662.640625	70.389954
499.944427	1449.039795	24238.423828	17560.779297	70.698441
500.297089	1446.007202	23928.687500	17412.740234	71.017929
500.649628	1444.630615	23578.921875	17239.513672	71.359337
501.002136	1440.371948	23203.154297	17043.164063	71.694839
501.354584	1437.532837	22852.552734	16860.539063	72.019577
501.707001	1434.156250	22491.947266	16671.548828	72.359879
502.059387	1432.005371	22181.478516	16522.023438	72.724823
502.411682	1429.747070	21899.015625	16393.835938	73.105141
502.764038	1429.531982	21673.394531	16292.621094	73.420219
503.116302	1429.575073	21490.425781	16235.194336	73.803543
503.468475	1428.370605	21362.968750	16216.353516	74.182495
503.820709	1427.445679	21297.326172	16236.634766	74.530838
504.172852	1427.768433	21260.976563	16267.133789	74.820801
504.524902	1425.101440	21239.255859	16311.266602	75.128944
504.876953	1428.177124	21248.654297	16353.747070	75.303795
505.228912	1427.918945	21261.386719	16410.570313	75.542267
505.580872	1427.553345	21280.679688	16468.535156	75.761269
505.932770	1426.391968	21267.861328	16510.433594	76.022812
506.284698	1425.209106	21266.160156	16541.576172	76.187714
506.636505	1425.660645	21272.806641	16580.656250	76.358566
506.988342	1423.789551	21269.794922	16609.283203	76.516624
507.340088	1424.671387	21276.398438	16641.998047	76.654922
507.691772	1424.456177	21279.777344	16680.582031	76.836464
508.043396	1423.681763	21298.380859	16746.095703	77.095078
508.395050	1425.337769	21345.074219	16824.470703	77.305908
508.746582	1426.262695	21429.212891	16946.830078	77.591393
509.098114	1426.929565	21563.166016	17074.482422	77.708427
509.449646	1429.446045	21709.593750	17209.380859	77.809761
509.801086	1431.080688	21892.970703	17371.765625	77.904259
510.152557	1433.403442	22072.626953	17554.669922	78.109856
510.503906	1433.640137	22255.166016	17717.720703	78.207909
510.855194	1437.210449	22443.490234	17898.064453	78.361588
511.206482	1438.801880	22627.857422	18075.269531	78.514435
511.557709	1440.243042	22821.171875	18250.539063	78.622856
511.908844	1445.340332	23011.128906	18411.312500	78.670769
512.260010	1446.136230	23173.730469	18559.224609	78.762001
512.611206	1446.588013	23288.087891	18657.496094	78.799110
512.962219	1449.663574	23368.722656	18746.474609	78.912193
513.313232	1450.394897	23425.783203	18824.806641	79.063049
513.664246	1450.932617	23455.679688	18860.273438	79.116295
514.015137	1450.760620	23457.228516	18869.652344	79.153511
514.366028	1453.728638	23439.097656	18887.117188	79.295410
514.716919	1452.115356	23387.007813	18864.789063	79.383446
515.067688	1450.416138	23307.533203	18820.847656	79.472656
515.418396	1449.555786	23222.382813	18767.164063	79.537712
515.769104	1448.136353	23144.609375	18725.029297	79.629959
516.119812	1450.093506	23090.453125	18698.681641	79.705643
516.470459	1450.050537	23097.982422	18729.740234	79.821434
516.821106	1450.824829	23162.376953	18796.308594	79.890572
517.171631	1453.126221	23358.894531	18966.736328	79.949760
517.522095	1457.212769	23642.285156	19207.884766	80.011780
517.872559	1461.062622	24070.144531	19559.412109	80.049026
518.222961	1464.977173	24575.886719	19978.150391	80.105774
518.573364	1469.493896	25124.449219	20431.392578	80.160362
518.923645	1476.312012	25645.048828	20865.123047	80.222687
519.273987	1481.818115	26105.107422	21247.707031	80.273148
519.624207	1483.925903	26452.355469	21533.033203	80.297829
519.974487	1483.646362	26733.636719	21771.601563	80.348366
520.324646	1484.850708	26895.742188	21906.498047	80.365723
520.674744	1483.000977	26977.429688	21972.722656	80.369408
521.024780	1481.710449	26911.783203	21918.521484	80.364738
521.374878	1480.419922	26728.537109	21785.171875	80.420853
521.724792	1477.086060	26432.779297	21552.390625	80.443787
522.074707	1472.505005	26056.068359	21255.642578	80.473030
522.424744	1468.870117	25661.351563	20931.173828	80.447746
522.774536	1464.095459	25332.281250	20651.720703	80.389961
523.124329	1462.159668	25042.888672	20416.421875	80.380302
523.474182	1458.589478	24903.343750	20294.751953	80.342758
523.823914	1461.815674	24869.898438	20248.552734	80.257477
524.173523	1463.321167	24982.623047	20328.431641	80.211182
524.523132	1467.084961	25229.251953	20534.199219	80.241470
524.872803	1469.020630	25632.398438	20865.359375	80.271637
525.222290	1474.118042	26245.767578	21350.107422	80.236839
525.571777	1480.118896	26965.470703	21925.253906	80.223083
525.921326	1488.958740	27765.914063	22566.386719	80.212593
526.270752	1495.389526	28603.373047	23256.386719	80.275238
526.620178	1505.949951	29496.150391	23981.380859	80.297501
526.969482	1513.800415	30569.894531	24849.443359	80.312386
527.318787	1527.286011	31845.470703	25887.507813	80.348549
527.668030	1539.803589	33489.312500	27257.205078	80.493889
528.017212	1559.289917	35522.765625	28992.150391	80.771652
528.366394	1579.442871	37770.765625	30945.382813	81.140823
528.715515	1603.768677	39934.906250	32847.210938	81.509300
529.064636	1620.781616	41741.433594	34418.867188	81.748634
529.413635	1635.256348	43115.664063	35608.691406	81.902367
529.762695	1642.827271	44061.628906	36401.109375	81.940742
530.111633	1649.752686	44697.285156	36919.132813	81.931244
530.460510	1649.731201	44978.562500	37157.960938	81.950584
530.809387	1647.408325	44862.527344	37066.250000	81.959373
531.158142	1642.504639	44333.128906	36636.867188	81.972008
531.506958	1635.901611	43292.691406	35761.164063	81.920052
531.855652	1623.814087	41803.566406	34480.039063	81.773094
532.204407	1609.554199	40108.777344	32990.863281	81.511536
532.552979	1591.637939	38622.894531	31641.488281	81.147255
532.901611	1580.238647	37507.550781	30647.818359	80.906639
533.250183	1573.549683	36804.671875	30016.835938	80.733414
533.598755	1566.581299	36351.496094	29611.218750	80.622986
533.947205	1563.010864	35978.953125	29299.908203	80.593163
534.295593	1561.505371	35663.878906	29040.029297	80.576569
534.643982	1561.634399	35411.527344	28839.099609	80.583603
534.992249	1567.914795	35183.628906	28656.929688	80.584381
535.340576	1561.526855	34984.875000	28507.726563	80.620888
535.688843	1556.752075	34779.281250	28348.480469	80.643257
536.037048	1552.041748	34511.781250	28113.873047	80.588722
536.385315	1550.880371	34046.386719	27733.888672	80.574242
536.733398	1545.288208	33382.691406	27194.875000	80.564316
537.081421	1536.878540	32527.445313	26503.779297	80.562904
537.429443	1531.695190	31672.181641	25825.650391	80.602402
537.777466	1528.555054	30902.644531	25195.701172	80.571503
538.125427	1524.640625	30244.908203	24663.960938	80.567917
538.473267	1519.865723	29722.843750	24233.455078	80.536140
538.821167	1509.907471	29287.111328	23885.001953	80.552002
539.169006	1508.853638	28941.242188	23606.472656	80.553024
539.516846	1508.401978	28654.732422	23369.369141	80.530098
539.864502	1509.240723	28495.763672	23240.923828	80.527908
540.212219	1507.928833	28504.111328	23247.117188	80.526901
540.559875	1511.520630	28838.193359	23524.205078	80.553841
540.907410	1519.500122	29597.880859	24135.767578	80.546906
541.254944	1530.125000	30617.769531	24961.974609	80.556023
541.602478	1536.168823	31697.882813	25847.826172	80.604362
541.949951	1542.857910	32720.099609	26686.013672	80.645866
542.297363	1549.718872	33602.207031	27421.375000	80.716530
542.644714	1555.117310	34395.015625	28075.199219	80.755676
542.992126	1562.107544	35014.703125	28575.087891	80.750031
543.339355	1564.710083	35429.875000	28925.736328	80.794014
543.686646	1564.580933	35497.582031	29000.130859	80.852119
544.033813	1562.494873	35207.761719	28766.423828	80.855148
544.380920	1554.149536	34458.527344	28153.531250	80.838425
544.728027	1542.900757	33316.277344	27217.136719	80.804245
545.075134	1530.189575	31969.875000	26129.367188	80.812851
545.422180	1519.500000	30666.382813	25058.351563	80.759415
545.769165	1509.111694	29513.033203	24106.193359	80.692558
546.116150	1500.379395	28531.037109	23295.341797	80.630531
546.463013	1491.259888	27665.556641	22580.326172	80.571663
546.809875	1481.581543	26966.525391	22011.845703	80.558403
547.156677	1477.903564	26331.867188	21482.142578	80.487114
547.503418	1472.526611	25801.994141	21038.412109	80.420525
547.850098	1467.601318	25317.220703	20648.169922	80.422951
548.196777	1466.676270	24898.181641	20303.546875	80.391212
548.543396	1465.321411	24474.513672	19973.720703	80.439156
548.890015	1459.385132	24032.888672	19606.580078	80.391579
549.236633	1453.341309	23521.126953	19206.099609	80.446487
549.583069	1448.588013	22973.126953	18770.109375	80.473366
549.929504	1444.006836	22375.375000	18281.664063	80.442223
550.275879	1438.049072	21767.470703	17797.216797	80.470406
550.622253	1435.747925	21120.251953	17275.623047	80.468758
550.968567	1428.047974	20528.802734	16806.103516	80.510201
551.314819	1424.520630	20002.304688	16376.696289	80.484177
551.661072	1421.982788	19598.126953	16045.600586	80.455009
552.007263	1416.218628	19304.757813	15811.292969	80.470932
552.353394	1411.852417	19120.906250	15651.488281	80.408783
552.699524	1410.153442	19001.708984	15562.984375	80.452415
553.045593	1407.249756	18950.607422	15515.193359	80.417580
553.391602	1407.701294	18928.796875	15498.458984	80.421669
553.737549	1407.895020	18905.654297	15491.512695	80.488113
554.083435	1408.690796	18871.564453	15456.839844	80.445808
554.429321	1405.744263	18837.603516	15418.296875	80.384727
554.775146	1404.711792	18766.435547	15354.332031	80.346970
555.120972	1401.593018	18699.888672	15291.744141	80.297806
555.466675	1400.001465	18572.431641	15190.785156	80.307701
555.812439	1400.861816	18412.195313	15055.521484	80.268013
556.158081	1400.431641	18199.246094	14890.511719	80.303764
556.503662	1400.495972	17978.443359	14710.791016	80.289162
556.849182	1400.818848	17754.201172	14522.186523	80.236412
557.194702	1397.764648	17537.119141	14344.959961	80.221268
557.540161	1393.140381	17350.515625	14182.315430	80.145859
557.885620	1390.774414	17176.365234	14045.803711	80.168236
558.231018	1387.849243	17019.054688	13914.863281	80.141060
558.576355	1386.472778	16895.041016	13806.333984	80.083870
558.921692	1386.365356	16771.951172	13710.363281	80.100937
559.266968	1382.923950	16670.603516	13621.558594	80.055542
559.612183	1381.353882	16585.216797	13550.731445	80.041351
559.957336	1378.815918	16526.220703	13492.295898	79.970665
560.302429	1376.493164	16485.611328	13445.859375	79.881340
560.647522	1377.073975	16465.630859	13425.599609	79.852074
560.992554	1376.149170	16452.361328	13400.608398	79.757828
561.337524	1375.396362	16454.466797	13400.952148	79.749977
561.682434	1376.772827	16478.041016	13405.747070	79.655388
562.027344	1379.590332	16486.343750	13401.443359	79.579330
562.372253	1380.256958	16492.281250	13398.303711	79.526382
562.717102	1381.052856	16496.431641	13397.227539	79.496353
563.061829	1383.289551	16506.345703	13398.625977	79.450447
563.406494	1382.923950	16506.863281	13388.906250	79.383965
563.751160	1383.010132	16487.873047	13382.281250	79.439789
564.095825	1383.805908	16480.019531	13381.184570	79.472771
564.440369	1381.052856	16470.945313	13376.022461	79.490097
564.784973	1381.547485	16486.128906	13396.218750	79.543228
565.129456	1383.504761	16545.621094	13435.363281	79.486649
565.473877	1381.934692	16631.501953	13497.005859	79.445343
565.818298	1379.418335	16780.574219	13620.353516	79.480629
566.162659	1381.225098	16958.230469	13762.349609	79.483345
566.507019	1383.117676	17142.789063	13915.207031	79.519989
566.851196	1382.623047	17304.982422	14045.610352	79.529594
567.195435	1384.924316	17465.066406	14175.519531	79.542801
567.539612	1386.128784	17583.642578	14261.616211	79.490517
567.883789	1387.870972	17669.867188	14328.399414	79.477531
568.227844	1390.107666	17720.433594	14365.822266	79.457779
568.571960	1392.796143	17746.607422	14371.329102	79.360909
568.915955	1391.957397	17702.988281	14332.657227	79.337105
569.259888	1392.301514	17641.583984	14296.868164	79.416222
569.603821	1394.624390	17538.859375	14217.717773	79.428314
569.947632	1393.140259	17414.093750	14121.856445	79.450424
570.291504	1390.537842	17301.820313	14025.672852	79.409912
570.635193	1388.817261	17230.070313	13972.183594	79.434158
570.979004	1387.720337	17189.140625	13945.061523	79.469696
571.322632	1388.387207	17251.921875	13991.905273	79.449615
571.666321	1386.881348	17348.537109	14072.366211	79.474739
572.009949	1388.752686	17484.488281	14179.197266	79.464806
572.353455	1388.688110	17614.806641	14297.640625	79.556625
572.696960	1392.903809	17731.423828	14409.762695	79.669762
573.040405	1395.269653	17836.578125	14482.718750	79.601021
573.383850	1396.302246	17900.994141	14533.005859	79.593750
573.727173	1397.678589	17957.580078	14582.108398	79.616592
574.070557	1398.667969	17983.669922	14610.477539	79.661186
574.413879	1400.474731	18000.898438	14619.015625	79.627731
574.757019	1398.560425	18007.070313	14627.381836	79.650864
575.100281	1398.409912	17948.935547	14591.549805	79.714325
575.443420	1397.850586	17855.351563	14518.315430	79.723320
575.786499	1394.968628	17718.580078	14421.874023	79.804062
576.129517	1395.011597	17557.830078	14313.581055	79.927704
576.472534	1395.269653	17409.726563	14196.619141	79.936211
576.815491	1393.376953	17219.445313	14073.011719	80.118668
577.158447	1392.839355	17037.873047	13951.255859	80.270943
577.501343	1389.634644	16846.281250	13810.806641	80.361366
577.844116	1385.655518	16634.621094	13658.531250	80.483330
578.187012	1383.182129	16399.818359	13496.768555	80.667770
578.529724	1380.321533	16122.384766	13287.171875	80.767868
578.872375	1377.310425	15831.832031	13076.093750	80.935112
579.215027	1374.062622	15551.066406	12870.025391	81.088806
579.557617	1371.159058	15267.546875	12667.160156	81.287315
579.900146	1368.104980	15013.774414	12459.909180	81.284424
580.242676	1364.362549	14763.677734	12271.650391	81.401833
580.585144	1363.910889	14546.577148	12104.618164	81.475983
580.927612	1360.620117	14349.434570	11959.050781	81.596596
581.269958	1358.254272	14169.499023	11825.228516	81.701462
581.612305	1359.136108	14031.352539	11721.561523	81.772797
581.954590	1358.017700	13892.000977	11628.881836	81.944138
582.296814	1359.329712	13789.235352	11569.110352	82.138840
582.639038	1358.168335	13691.159180	11506.824219	82.288681
582.981140	1360.641724	13596.156250	11451.354492	82.470688
583.323242	1364.212036	13520.319336	11399.068359	82.549919
583.665283	1361.824707	13440.610352	11362.761719	82.797546
584.007324	1359.243652	13378.174805	11335.446289	83.004074
584.349304	1357.071411	13312.359375	11308.325195	83.237259
584.691284	1355.264771	13251.771484	11277.160156	83.401756
585.033142	1354.447388	13186.343750	11256.534180	83.689766
585.374939	1354.253906	13123.582031	11233.347656	83.939316
585.716736	1352.533203	13080.458984	11212.097656	84.069122
586.058411	1353.329102	13023.613281	11180.846680	84.209755
586.400085	1354.124878	12978.125000	11160.651367	84.364471
586.741760	1351.285889	12935.324219	11153.532227	84.618561
587.083374	1348.253174	12922.503906	11167.469727	84.836739
587.424988	1348.167114	12903.749023	11170.717773	85.002647
587.766541	1346.360352	12895.706055	11184.526367	85.183754
588.107971	1346.166748	12910.008789	11213.969727	85.333260
588.449341	1346.747559	12925.581055	11245.415039	85.489334
588.790710	1346.941162	12962.487305	11296.130859	85.654083
589.132080	1345.693604	12993.931641	11344.803711	85.842255
589.473267	1348.984375	13041.616211	11406.875977	86.019058
589.814514	1347.392700	13090.913086	11469.786133	86.195564
590.155762	1346.424927	13151.329102	11539.924805	86.349701
590.496948	1348.704834	13191.547852	11584.467773	86.429947
590.838013	1348.102661	13204.711914	11609.674805	86.547272
591.179077	1349.005981	13229.359375	11648.045898	86.689674
591.520081	1350.704956	13229.360352	11664.262695	86.824287
591.861023	1352.339600	13208.475586	11661.811523	86.954735
592.201965	1351.930908	13188.343750	11663.596680	87.118164
592.542847	1353.264526	13146.706055	11645.980469	87.274918
592.883606	1353.716187	13099.450195	11620.128906	87.405457
593.224365	1352.468628	13047.250000	11597.867188	87.606583
593.565125	1352.511597	13016.602539	11588.984375	87.760574
593.905823	1353.823730	12999.008789	11588.554688	87.888084
594.246521	1353.350464	12995.803711	11607.545898	88.075897
594.587097	1354.942139	13030.777344	11652.734375	88.197479
594.927612	1354.017334	13055.768555	11695.858398	88.378578
595.268127	1354.985229	13121.110352	11772.340820	88.536842
595.608582	1350.597534	13227.984375	11877.256836	88.627739
595.948975	1350.877075	13347.805664	12009.359375	88.843422
596.289307	1352.597656	13530.000000	12190.952148	89.003830
596.629700	1353.845093	13753.403320	12413.043945	89.190262
596.969971	1355.157104	13974.957031	12628.725586	89.332390
597.310242	1355.028198	14161.775391	12815.997070	89.491646
597.650391	1355.286255	14280.758789	12933.042969	89.573181
597.990540	1353.350464	14364.662109	13011.847656	89.602783
598.330627	1354.425903	14370.918945	13037.443359	89.755493
598.670654	1356.727295	14358.681641	13037.271484	89.836838
599.010620	1355.845459	14279.640625	12978.337891	89.930954
599.350525	1358.834961	14147.237305	12875.100586	90.052422
599.690491	1358.985474	13981.238281	12724.543945	90.043816
600.030334	1356.426147	13756.113281	12520.412109	90.034416
600.370178	1354.576416	13481.950195	12274.337891	90.042259
600.710022	1352.210449	13190.322266	12017.380859	90.091820
601.049683	1351.221191	12926.418945	11775.846680	90.060020
601.389343	1349.005859	12712.930664	11600.449219	90.210411
601.728943	1349.220947	12547.619141	11459.075195	90.279465
602.068542	1346.145386	12447.219727	11373.538086	90.328125
602.408081	1343.714966	12407.515625	11342.544922	90.374275
602.747498	1347.392822	12457.952148	11384.163086	90.335419
603.087036	1349.758667	12558.715820	11477.486328	90.353882
603.426453	1349.027344	12710.046875	11615.202148	90.363144
603.765869	1350.661987	12902.652344	11791.589844	90.382065
604.105103	1350.833984	13132.744141	12006.412109	90.440155
604.444336	1352.103027	13408.628906	12258.056641	90.456848
604.783569	1354.791504	13683.350586	12525.293945	90.606712
605.122681	1358.039185	13923.790039	12750.203125	90.660431
605.461792	1360.362183	14122.050781	12943.819336	90.767433
605.800842	1361.910645	14273.315430	13088.290039	90.821869
606.139954	1362.641846	14346.141602	13162.621094	90.884430
606.478943	1359.931763	14330.636719	13169.825195	91.050514
606.817932	1356.813232	14249.227539	13112.850586	91.185692
607.156799	1358.340332	14120.008789	13009.782227	91.300301
607.495605	1357.071411	13942.028320	12860.087891	91.402908
607.834412	1356.512207	13730.906250	12662.922852	91.369400
608.173157	1356.963867	13487.928711	12442.207031	91.379730
608.511841	1357.523193	13275.150391	12250.613281	91.403175
608.850464	1356.813354	13123.109375	12110.446289	91.393524
609.189148	1357.222046	13038.905273	12032.500977	91.384766
609.527710	1357.178955	12987.802734	11991.011719	91.429604
609.866211	1356.619629	12966.853516	11987.399414	91.563866
610.204712	1356.576660	12970.832031	12000.261719	91.643288
610.543091	1358.921021	12985.652344	12017.597656	91.673889
610.881409	1359.200684	12981.887695	12020.328125	91.726868
611.219788	1358.555542	12962.636719	12005.574219	91.752365
611.558044	1359.222290	12924.590820	11989.722656	91.916656
611.896301	1357.071411	12848.300781	11936.962891	92.069275
612.234436	1355.092651	12720.778320	11821.593750	92.088600
612.572693	1350.468384	12538.434570	11666.262695	92.204376
612.910767	1346.295776	12311.265625	11461.850586	92.253372
613.248840	1345.951660	12067.795898	11236.316406	92.245003
613.586792	1344.962402	11823.615234	11007.556641	92.212181
613.924805	1343.112671	11590.983398	10788.820313	92.172394
614.262695	1339.284180	11367.793945	10587.053711	92.214790
614.600525	1335.563354	11181.536133	10410.922852	92.173317
614.938293	1333.627441	11017.816406	10269.938477	92.277321
615.276123	1329.906738	10869.152344	10140.588867	92.362450
615.613892	1329.584106	10751.783203	10023.370117	92.269180
615.951538	1328.035522	10640.694336	9926.605469	92.332062
616.289185	1328.014038	10566.943359	9854.404297	92.287643
616.626770	1327.411743	10496.353516	9790.977539	92.306900
616.964294	1326.013672	10445.938477	9747.788086	92.344780
617.301819	1323.604736	10407.267578	9707.439453	92.295753
617.639221	1323.153076	10378.189453	9683.415039	92.327202
617.976624	1321.325073	10362.853516	9657.712891	92.201088
618.313965	1324.164185	10346.486328	9646.313477	92.239548
618.651306	1327.497803	10337.819336	9632.204102	92.168808
618.988525	1329.605591	10326.570313	9606.136719	91.992485
619.325684	1329.433472	10320.224609	9601.339844	92.004211
619.662964	1331.111206	10312.611328	9591.595703	91.972214
620.000000	1331.605957	10289.296875	9575.035156	92.026276
620.337097	1329.842285	10270.563477	9557.700195	92.026779
620.674133	1327.670044	10244.667969	9529.589844	91.980728
621.011047	1330.035889	10211.373047	9506.597656	92.064537
621.347961	1329.648682	10182.379883	9474.249023	92.000992
621.684875	1331.390747	10146.871094	9445.772461	92.046959
622.021729	1329.863770	10114.371094	9418.608398	92.079659
622.358521	1329.132324	10068.881836	9380.862305	92.127693
622.695313	1327.325684	10045.352539	9364.666016	92.192192
623.031982	1326.551514	10015.541992	9337.178711	92.192841
623.368652	1324.529785	9991.561523	9313.326172	92.174545
623.705261	1323.712402	9977.149414	9297.259766	92.143120
624.041748	1326.443970	9965.019531	9291.258789	92.200562
624.378296	1330.057373	9964.589844	9293.538086	92.228279
624.714722	1329.777710	9987.903320	9299.561523	92.049751
625.051147	1331.756470	10010.014648	9319.606445	92.044395
625.387512	1333.520142	10059.138672	9359.784180	91.985046
625.723877	1334.358887	10114.349609	9407.381836	91.947975
626.060120	1332.380249	10206.467773	9495.047852	91.983170
626.396301	1335.004150	10316.202148	9591.725586	91.933411
626.732483	1338.079956	10427.527344	9700.147461	91.997536
627.068604	1340.488770	10542.659180	9807.750977	92.013748
627.404724	1345.156006	10649.726563	9900.237305	91.944931
627.740662	1346.575562	10744.706055	9985.344727	91.920082
628.076721	1345.392578	10811.510742	10048.557617	91.940170
628.412720	1344.360107	10847.579102	10091.422852	92.043159
628.748596	1344.058960	10864.636719	10112.586914	92.100800
629.084473	1344.790161	10857.860352	10110.047852	92.139107
629.420227	1344.058960	10822.523438	10083.700195	92.205246
629.755981	1344.381592	10759.699219	10017.971680	92.122116
630.091675	1345.285034	10655.600586	9925.573242	92.158943
630.427307	1343.714966	10541.219727	9820.118164	92.159813
630.762939	1340.768311	10419.979492	9702.900391	92.101967
631.098450	1338.208862	10297.727539	9588.993164	92.089592
631.434021	1338.208862	10185.499023	9481.947266	92.047829
631.769470	1335.197754	10085.313477	9383.355469	91.977737
632.104980	1333.240479	9990.163086	9297.602539	91.999924
632.440308	1331.627441	9907.851563	9216.602539	91.939934
632.775635	1330.315430	9827.433594	9141.175781	91.923637
633.110901	1330.401489	9767.102539	9083.211914	91.893860
633.446106	1330.788574	9724.925781	9038.173828	91.818680
633.781250	1328.100098	9693.135742	9012.686523	91.865562
634.116394	1329.304565	9672.036133	8987.071289	91.789680
634.451538	1330.186401	9660.164063	8976.919922	91.797768
634.786560	1329.261597	9636.849609	8960.746094	91.861618
635.121582	1326.723511	9609.641602	8934.118164	91.844376
635.456543	1329.820679	9574.928711	8910.501953	91.941559
635.791443	1334.122437	9539.719727	8875.292969	91.902756
636.126221	1333.455688	9498.402344	8843.741211	91.982056
636.461060	1330.294067	9459.751953	8812.834961	92.042313
636.795776	1328.336792	9411.875000	8767.688477	92.030884
637.130493	1327.261353	9340.318359	8703.207031	92.049088
637.465210	1329.089478	9269.083984	8628.532227	91.932594
637.799805	1327.562378	9190.750977	8552.694336	91.885521
638.134399	1325.196655	9101.235352	8470.147461	91.884201
638.468933	1324.400757	9013.999023	8397.062500	91.976997
638.803345	1324.099731	8930.870117	8318.750977	91.952972
639.137756	1322.357422	8856.818359	8248.312500	91.923698
639.472168	1320.937988	8790.487305	8181.400391	91.845734
639.806519	1319.582886	8721.060547	8116.919922	91.837570
640.140747	1319.797974	8648.619141	8049.813965	91.829445
640.474976	1320.142090	8578.417969	7984.365723	91.815521
640.809204	1321.066895	8510.150391	7931.714355	91.953964
641.143372	1321.023926	8444.959961	7879.084473	92.056702
641.477478	1320.658325	8379.188477	7828.497070	92.198212
641.811462	1321.798340	8318.385742	7774.039063	92.219826
642.145447	1322.206909	8273.305664	7731.796875	92.209740
642.479370	1321.647583	8229.859375	7695.382813	92.263168
642.813293	1321.346558	8179.572266	7648.001465	92.249153
643.147095	1318.873169	8133.115234	7610.642090	92.332634
643.480957	1319.862427	8095.455078	7570.831055	92.257149
643.814758	1322.593872	8059.644043	7530.998047	92.153152
644.148438	1322.809082	8031.532715	7502.220215	92.110085
644.482117	1322.593872	8010.153320	7477.228027	92.031097
644.815735	1320.400146	7981.741699	7441.201660	91.885422
645.149292	1319.002075	7963.890625	7424.425293	91.881500
645.482788	1318.636475	7946.726563	7415.004883	91.977753
645.816223	1318.098755	7929.542480	7391.732910	91.865479
646.149658	1321.884277	7921.261230	7381.903320	91.827141
646.483032	1322.830566	7925.670410	7389.065918	91.873123
646.816345	1325.002930	7925.347168	7390.507324	91.896790
647.149658	1325.712769	7925.153320	7397.541016	92.005196
647.482849	1323.067261	7931.089355	7402.530762	92.001259
647.816101	1323.690918	7933.498535	7408.079590	92.050919
648.149231	1325.583618	7934.251465	7408.251465	92.040756
648.482239	1325.562134	7940.402832	7420.252930	92.136620
648.815247	1325.282715	7940.918457	7419.112305	92.112534
649.148254	1326.250366	7943.090820	7419.757813	92.090889
649.481201	1326.723511	7939.155762	7421.262695	92.167885
649.814087	1323.475830	7926.875000	7417.284668	92.282898
650.146973	1323.949097	7914.399902	7408.208984	92.319328
650.479736	1322.873657	7914.377930	7398.142578	92.168175
650.812500	1323.820068	7909.216797	7389.904785	92.114197
651.145203	1324.185547	7898.226074	7385.732422	92.204285
651.477844	1325.045898	7892.375488	7382.699707	92.239220
651.810486	1322.529419	7888.052734	7377.945801	92.230522
652.143005	1322.421875	7879.083984	7370.332520	92.240692
652.475525	1322.830566	7875.061035	7362.374512	92.175392
652.807922	1321.389526	7863.532715	7349.318848	92.139977
653.140381	1321.131348	7854.090820	7337.575195	92.093697
653.472717	1322.206787	7835.443359	7315.960938	92.024208
653.805115	1322.744507	7811.312012	7294.194824	92.030334
654.137390	1323.303833	7778.468750	7271.159180	92.141029
654.469543	1322.292847	7743.497070	7239.993652	92.158737
654.801758	1323.992065	7706.976563	7206.162109	92.153915
655.133850	1322.938110	7666.024902	7170.114258	92.181870
655.465881	1323.798340	7628.988770	7136.260742	92.185356
655.797974	1326.874023	7598.726563	7108.192383	92.178802
656.129944	1328.723755	7561.474609	7071.048340	92.131462
656.461853	1331.111206	7537.429199	7045.948242	92.080956
656.793762	1330.465942	7519.620605	7025.923828	92.023193
657.125610	1329.476685	7518.437500	7025.429199	92.034073
657.457397	1330.100342	7528.761230	7031.279785	91.974373
657.789124	1327.884888	7549.730957	7051.367676	91.990105
658.120789	1325.863281	7595.220703	7091.523926	91.965736
658.452393	1325.712646	7671.316895	7159.618652	91.936180
658.783997	1325.906250	7765.521484	7245.112793	91.918640
659.115540	1325.024292	7877.062500	7352.157715	91.988678
659.447083	1322.099243	7988.430176	7460.063965	92.074104
659.778503	1323.475952	8102.724609	7574.680176	92.210869
660.109924	1322.895264	8201.403320	7667.466797	92.237610
660.441284	1327.067749	8284.660156	7741.603516	92.194763
660.772522	1329.347656	8343.678711	7796.126465	92.193810
661.103760	1328.401245	8376.391602	7833.379883	92.295509
661.434998	1329.067993	8385.361328	7843.982910	92.327721
661.766113	1332.659912	8352.733398	7816.774902	92.365349
662.097229	1332.573730	8281.864258	7757.864258	92.459663
662.428345	1334.746094	8188.197266	7662.432617	92.328468
662.759277	1336.638794	8055.599609	7543.192383	92.373711
663.090332	1339.757446	7920.400391	7417.048340	92.351021
663.421204	1336.617310	7777.931641	7282.472168	92.308098
663.752075	1336.230225	7635.720215	7154.241699	92.356865
664.082886	1333.584595	7499.488770	7039.409668	92.538338
664.413635	1332.401733	7379.345215	6923.137207	92.455559
664.744324	1331.347778	7271.783203	6819.124512	92.380043
665.075012	1333.627686	7177.986328	6731.586426	92.361877
665.405640	1333.477051	7108.106445	6663.620605	92.302780
665.736206	1333.971802	7047.948730	6605.033203	92.248558
666.066772	1332.638184	6992.845215	6563.673340	92.417732
666.397278	1331.175659	6956.948242	6522.700195	92.281097
666.727661	1328.895752	6917.653320	6485.921875	92.275002
667.058044	1331.648804	6889.562988	6461.896973	92.305275
667.388306	1331.068237	6871.109375	6440.023438	92.218719
667.718567	1330.874756	6853.817383	6416.945313	92.089867
668.048828	1331.842651	6843.343262	6413.267090	92.196747
668.378967	1334.186890	6841.342285	6413.740723	92.235527
668.709167	1333.907227	6841.601074	6413.934570	92.235107
669.039246	1334.165283	6841.170410	6412.708984	92.219711
669.369263	1335.434326	6843.127930	6418.301270	92.286674
669.699341	1336.638794	6839.643555	6414.343262	92.271492
670.029236	1335.993530	6832.223145	6408.515137	92.290932
670.359131	1335.735474	6828.630859	6407.482422	92.332855
670.688965	1335.993530	6818.565430	6391.200195	92.205025
671.018738	1338.402466	6799.423340	6380.876953	92.335747
671.348511	1339.563965	6785.142578	6367.562988	92.331772
671.678223	1340.617676	6766.085449	6346.291992	92.262543
672.007813	1339.284302	6734.426270	6314.868652	92.223419
672.337341	1339.714478	6704.465332	6284.284180	92.167740
672.666992	1340.596313	6671.987793	6255.334473	92.184906
672.996460	1339.822144	6636.758301	6218.792480	92.109291
673.325867	1340.768555	6604.001465	6190.036133	92.134773
673.655273	1343.693604	6570.578125	6161.752930	92.178413
673.984619	1346.166992	6531.841797	6130.156738	92.253944
674.314026	1346.769165	6501.708984	6103.336426	92.272026
674.643250	1347.457397	6475.360840	6075.312012	92.198586
674.972412	1348.102539	6445.852051	6053.588867	92.305168
675.301514	1346.123901	6418.300293	6031.951660	92.382980
675.630676	1348.425171	6399.007813	6012.960449	92.356377
675.959778	1348.726196	6375.133301	5985.945801	92.257141
676.288757	1346.769043	6355.583008	5967.190918	92.245827
676.617737	1347.994995	6330.139160	5945.252441	92.274673
676.946594	1345.564575	6317.104980	5930.347656	92.220573
677.275513	1346.769043	6303.340820	5916.324707	92.191856
677.604309	1348.296143	6301.619141	5909.721191	92.088173
677.933044	1348.339111	6297.081055	5913.033203	92.239487
678.261780	1347.371216	6302.092285	5921.185547	92.312248
678.590393	1346.725952	6318.115723	5931.186523	92.216881
678.919067	1347.736816	6339.990234	5950.522461	92.198555
679.247620	1350.597290	6369.906738	5977.751465	92.187065
679.576111	1354.576294	6414.687012	6029.155762	92.380974
679.904541	1357.888672	6464.951660	6072.731445	92.320045
680.232971	1360.211548	6527.389160	6130.201172	92.313248
680.561401	1367.094238	6579.482422	6178.701660	92.310997
680.889709	1368.986816	6631.660645	6225.804199	92.288017
681.217957	1370.320313	6676.612793	6268.454590	92.308037
681.546143	1373.030396	6715.370117	6304.265137	92.304779
681.874390	1376.299683	6754.256348	6331.365234	92.136581
682.202454	1380.837769	6781.851074	6357.498047	92.143082
682.530579	1384.322144	6789.357422	6365.412598	92.156487
682.858521	1385.376099	6781.614258	6358.099609	92.151672
683.186523	1385.913696	6746.879395	6325.945313	92.148170
683.514465	1386.193237	6701.539551	6287.402832	92.208656
683.842346	1388.881836	6645.490234	6229.417480	92.084770
684.170166	1386.279297	6579.826172	6170.937500	92.126984
684.497925	1386.472778	6514.226563	6114.456543	92.203796
684.825623	1385.655396	6446.218262	6045.071777	92.073090
685.153320	1384.773682	6370.703125	5973.901367	92.041573
685.481018	1383.354126	6294.414551	5909.657227	92.165497
685.808533	1384.106934	6218.426270	5846.122559	92.298737
686.136047	1385.784668	6154.891113	5784.136230	92.225906
686.463623	1386.774048	6099.916992	5734.452637	92.245850
686.791016	1387.526855	6063.267090	5695.888672	92.142883
687.118408	1389.634644	6037.909180	5671.455566	92.116348
687.445740	1388.042969	6019.132813	5658.679688	92.216667
687.772949	1389.613159	6015.045410	5646.333984	92.028603
688.100220	1391.161621	6012.099609	5640.075195	91.949158
688.427429	1396.474121	6003.087402	5634.633789	92.001640
688.754517	1399.270264	6008.249512	5630.611816	91.806480
689.081604	1402.259888	5999.280762	5624.934082	91.856758
689.408630	1401.657593	5991.171875	5609.577148	91.685509
689.735657	1402.023193	5971.492188	5595.704590	91.776131
690.062622	1401.377930	5948.737305	5570.540039	91.683144
690.389465	1403.141602	5917.722168	5538.793945	91.606567
690.716248	1404.238647	5876.018555	5502.036621	91.636841
691.043091	1406.045288	5826.141113	5458.117188	91.673843
691.369812	1407.744385	5769.511230	5413.423828	91.836174
691.696533	1407.658325	5708.041016	5357.201660	91.841675
692.023132	1403.399658	5655.582520	5308.571777	91.839241
692.349670	1401.700439	5592.693359	5254.478516	91.929955
692.676270	1403.227661	5541.073730	5202.107422	91.808144
693.002747	1403.378052	5492.959961	5155.003906	91.736168
693.329163	1403.313599	5450.717773	5110.891113	91.603836
693.655518	1405.593506	5407.400879	5077.231445	91.749489
693.981873	1404.389038	5364.772461	5043.894043	91.897797
694.308167	1406.260254	5326.423828	5007.330078	91.860191
694.634399	1406.195801	5301.151367	4977.713867	91.695992
694.960571	1406.604492	5276.309570	4952.184082	91.624023
695.286743	1409.400513	5256.242676	4936.031250	91.675995
695.612854	1414.239746	5242.563477	4922.911133	91.650330
695.938904	1418.713379	5237.853516	4920.630859	91.693871
696.264832	1420.197388	5241.918457	4921.878418	91.625763
696.590820	1425.208862	5250.500000	4933.793457	91.720718
696.916687	1428.047974	5274.652832	4958.163086	91.772232
697.242554	1430.822510	5313.324707	4990.919922	91.695953
697.568359	1435.919800	5373.332520	5043.593262	91.625481
697.894043	1442.802490	5455.772949	5117.473145	91.569839
698.219788	1451.663696	5556.581055	5211.462891	91.592567
698.545349	1459.578735	5674.015137	5322.143555	91.650803
698.870972	1470.827515	5799.234375	5437.490723	91.642570
699.196533	1477.903442	5917.076660	5547.762695	91.680573
699.521973	1484.678589	6021.197266	5642.763672	91.658058
699.847412	1493.948730	6108.326172	5723.418945	91.658524
700.172852	1502.121582	6172.678223	5782.070801	91.636810
700.498169	1510.208618	6207.930176	5817.236328	91.683334
700.823486	1514.832764	6215.135742	5819.538086	91.583572
701.148682	1517.456909	6188.142578	5795.792969	91.599739
701.473816	1518.682739	6122.328613	5735.936523	91.606827
701.799072	1518.897949	6019.906738	5643.258301	91.631912
702.124146	1515.607300	5893.568848	5525.888672	91.601570
702.449158	1510.832153	5747.744141	5395.034180	91.675308
702.774109	1510.466675	5599.274414	5258.931152	91.676224
703.099060	1508.014771	5460.439941	5131.582031	91.679588
703.424011	1501.906372	5323.562500	5007.501953	91.729752
703.748840	1494.937866	5198.386230	4889.896484	91.670204
704.073608	1492.292236	5088.071289	4783.280762	91.523659
704.398315	1489.216675	4990.511230	4694.904297	91.557213
704.723022	1488.506958	4912.694824	4620.400391	91.463829
705.047668	1487.194946	4849.225098	4560.263672	91.405151
705.372253	1486.958496	4791.949219	4505.504395	91.332962
705.696716	1489.560913	4742.028809	4457.434082	91.249886
706.021240	1486.377808	4705.701660	4421.193359	91.162483
706.345764	1486.076660	4678.321777	4390.629883	90.987785
706.670044	1489.023315	4652.834961	4365.895996	90.930595
706.994446	1493.626099	4636.037109	4349.098145	90.868828
707.318665	1498.056641	4628.853516	4335.397949	90.626808
707.642883	1500.013794	4621.927246	4329.891602	90.645622
707.967102	1503.326050	4619.539551	4329.590332	90.695465
708.291260	1507.907349	4620.271484	4326.751465	90.569229
708.615295	1511.757324	4613.496582	4325.009766	90.699188
708.939331	1514.875854	4623.369141	4330.687500	90.584450
709.263367	1517.671875	4634.337891	4338.215332	90.498741
709.587280	1525.285645	4649.156250	4343.570801	90.217728
709.911194	1529.910034	4660.512207	4357.787598	90.330147
710.234985	1534.168457	4682.300293	4374.972168	90.237762
710.558716	1538.620728	4706.905762	4397.426270	90.231956
710.882568	1546.449707	4732.435547	4429.215332	90.482689
711.206177	1551.869629	4761.234863	4458.530762	90.568100
711.529785	1558.451172	4791.948242	4485.308594	90.516777
711.853394	1566.322998	4811.542480	4508.945801	90.675621
712.176880	1571.054810	4837.051270	4526.087402	90.478745
712.500427	1575.356567	4848.170898	4540.906738	90.611626
712.823792	1581.636841	4854.945801	4549.208984	90.659698
713.147217	1587.981689	4857.269043	4554.542480	90.740288
713.470520	1594.068481	4847.482422	4547.187012	90.769836
713.793823	1596.627808	4831.975098	4534.949219	90.819351
714.117004	1599.639038	4813.134277	4511.483887	90.613014
714.440247	1599.165894	4789.754395	4487.609375	90.530113
714.763367	1603.875854	4761.858887	4454.401367	90.264114
715.086365	1608.371094	4733.424805	4427.172363	90.200089
715.409485	1608.629272	4712.583984	4400.566895	89.947754
715.732361	1610.801636	4689.419922	4381.059082	89.983788
716.055298	1614.780762	4668.600098	4361.852051	89.955269
716.378174	1617.232544	4652.146484	4345.097656	89.882782
716.700928	1617.490723	4631.476563	4327.288574	89.907448
717.023804	1617.533691	4612.958496	4308.039063	89.820496
717.346558	1623.104248	4589.815918	4283.777832	89.684265
717.669189	1625.040161	4560.134766	4259.925781	89.771744
717.991760	1629.470703	4523.679199	4225.556152	89.699326
718.314392	1629.169556	4482.189453	4195.896484	89.965263
718.636902	1627.621094	4440.808105	4157.934082	89.944710
718.959351	1629.341797	4385.704590	4114.531250	90.161911
719.281738	1630.244995	4331.891113	4063.793945	90.076523
719.604065	1629.642700	4277.132324	4012.475830	90.003487
719.926453	1629.685913	4219.189453	3960.963867	90.027985
720.248718	1630.782715	4167.097168	3911.538330	89.924011
720.570923	1631.535522	4116.423828	3865.382080	89.897270
720.893066	1628.094116	4070.225098	3826.732178	90.029503
721.215088	1627.599487	4024.885742	3787.394287	90.093330
721.537170	1624.631348	3983.074463	3751.733643	90.190948
721.859192	1624.695801	3953.220947	3720.245850	89.994736
722.181152	1625.448730	3915.560303	3693.188965	90.289932
722.503052	1625.964844	3889.772461	3669.959961	90.290146
722.824951	1626.739136	3870.092285	3654.452881	90.387634
723.146790	1625.857300	3852.434326	3637.009521	90.324837
723.468506	1624.373169	3838.518799	3622.277100	90.233635
723.790161	1624.953979	3823.914795	3611.845215	90.355911
724.111816	1626.889771	3815.247070	3602.446045	90.275757
724.433472	1631.427856	3805.503906	3591.756348	90.168343
724.755005	1636.890991	3800.771973	3584.508545	90.005768
725.076477	1641.708862	3796.147705	3581.970459	90.058784
725.397888	1646.956665	3793.975586	3578.142090	89.947289
725.719299	1652.613281	3796.771240	3573.088135	89.567787
726.040710	1656.097656	3798.341553	3573.754639	89.516273
726.361938	1660.291748	3797.567383	3574.055664	89.542213
726.683167	1668.808716	3805.762451	3582.810059	89.566818
727.004395	1676.659058	3811.676758	3593.370117	89.774956
727.325500	1686.273438	3822.968750	3603.220947	89.715530
727.646667	1695.306763	3836.905273	3621.781982	89.955009
727.967651	1702.640991	3852.821289	3638.752197	90.044136
728.288635	1711.201172	3870.888184	3661.141602	90.288101
728.609558	1721.976685	3887.062500	3676.993164	90.297409
728.930481	1729.267944	3898.289307	3690.113037	90.402290
729.251282	1736.430054	3910.721191	3700.845947	90.347420
729.572021	1742.646118	3921.582764	3706.889893	90.146904
729.892761	1749.743774	3928.292969	3711.513916	90.049377
730.213440	1756.110107	3928.594482	3712.008545	90.030495
730.534119	1766.390747	3936.121826	3712.460205	89.691742
730.854675	1771.036743	3941.284180	3714.567871	89.553429
731.175171	1775.725342	3945.972412	3714.846924	89.350266
731.495605	1783.597290	3952.231445	3720.095215	89.295738
731.816101	1788.436646	3954.468506	3719.643555	89.158752
732.136475	1790.307739	3957.630371	3722.611816	89.156265
732.456787	1797.340942	3961.308350	3730.375977	89.328293
732.777039	1803.900879	3962.813477	3737.065430	89.543434
733.097229	1807.621826	3969.911133	3744.206055	89.561752
733.417480	1813.644165	3973.847412	3746.980225	89.497879
733.737549	1815.558472	3973.825684	3747.238281	89.501427
734.057617	1816.268066	3964.921631	3744.055420	89.720718
734.377563	1818.461670	3945.822021	3732.333008	89.964607
734.697510	1819.666138	3920.313477	3711.427979	90.056129
735.017517	1818.268433	3893.535889	3687.188232	90.056808
735.337341	1818.719971	3861.488525	3654.840088	89.883904
735.657166	1820.462158	3826.151367	3620.513184	89.747253
735.976868	1816.547607	3791.652344	3583.583740	89.465439
736.296631	1813.084839	3753.604736	3547.213867	89.364143
736.616272	1813.213745	3716.202393	3513.360107	89.340858
736.935852	1811.278076	3682.929443	3482.066162	89.268127
737.255371	1811.815918	3650.839600	3455.675537	89.387627
737.574829	1811.643799	3622.341553	3430.252930	89.391457
737.894348	1811.407349	3606.791260	3414.530518	89.291382
738.213745	1814.203247	3598.833496	3401.238525	88.927963
738.533081	1817.063965	3588.465820	3390.936523	88.848984
738.852356	1821.601929	3593.047119	3397.582031	88.965782
739.171570	1827.516724	3600.704102	3399.990723	88.680641
739.490784	1835.560669	3604.403320	3405.712402	88.767181
739.809937	1843.583130	3611.028320	3412.358643	88.759499
740.129028	1851.089478	3604.791260	3414.638428	89.157059
740.447998	1855.305176	3598.725830	3413.068115	89.350952
740.767029	1858.983154	3595.972656	3404.959473	89.003204
741.085999	1862.682373	3588.423340	3396.743652	88.892906
741.404846	1864.101929	3573.109375	3378.010010	88.584053
741.723633	1863.327637	3551.988525	3359.749268	88.615875
742.042358	1861.714478	3528.221924	3337.811035	88.574257
742.361145	1858.617310	3494.196289	3307.549805	88.588356
742.679810	1856.509644	3461.418213	3284.600586	88.982697
742.998413	1852.638184	3425.457031	3254.467773	89.128487
743.316956	1846.250122	3390.420410	3223.775635	89.208138
743.635498	1841.324951	3362.674805	3191.147705	88.725334
743.953979	1838.141724	3338.628906	3166.435303	88.524155
744.272400	1836.464111	3308.108643	3145.529541	88.952553
744.590698	1833.302368	3283.417725	3125.053955	89.079231
744.909058	1829.388184	3260.339600	3106.857910	89.274155
745.227356	1827.409424	3239.820557	3088.683838	89.299385
745.545471	1826.742554	3222.097900	3071.584961	89.213287
745.863586	1825.409058	3203.257080	3058.034912	89.460220
746.181702	1820.806519	3183.792236	3042.807129	89.656158
746.499756	1820.118042	3175.942139	3030.160156	89.247719
746.817810	1822.569946	3166.972900	3019.879150	89.058807
747.135742	1823.430420	3161.961670	3013.577393	88.914398
747.453613	1824.548828	3153.874756	3007.082275	88.957375
747.771423	1827.086670	3149.702148	3002.802246	88.893227
748.089233	1829.581543	3145.250000	2999.145508	88.895035
748.406982	1837.389038	3144.432617	3002.974365	89.177238
748.724609	1841.045410	3145.271240	3005.964111	89.318787
749.042236	1846.572754	3143.980713	3012.373535	89.856148
749.359863	1850.121826	3147.078125	3015.965088	89.890717
749.677429	1858.208862	3152.046631	3017.212646	89.578758
749.994873	1863.779297	3154.154541	3020.761719	89.662476
750.312256	1868.812134	3155.143555	3023.622070	89.775459
750.629639	1872.103027	3156.003906	3026.999023	89.952118
750.946960	1880.189941	3156.842773	3025.536621	89.714813
751.264282	1882.168823	3154.025146	3025.170410	89.868767
751.581482	1887.266113	3152.132568	3023.471680	89.828102
751.898621	1888.406128	3150.110840	3021.170166	89.780441
752.215698	1892.427856	3147.938477	3020.116211	89.819099
752.532715	1894.256348	3147.615723	3015.728271	89.477287
752.849792	1898.020264	3148.476318	3014.265869	89.267082
753.166748	1901.031372	3146.454590	3013.964844	89.361870
753.483643	1904.773804	3142.066650	3014.480713	89.688301
753.800476	1906.128906	3139.851563	3014.351807	89.827553
754.117310	1911.591797	3139.421143	3016.051025	89.952179
754.434082	1912.387451	3135.506836	3020.309570	90.581680
754.750732	1916.517090	3139.636475	3023.235107	90.483238
755.067383	1920.689575	3141.378662	3027.988281	90.710953
755.383911	1923.765259	3137.077148	3028.095459	91.017838
755.700562	1925.507324	3139.120117	3023.364014	90.461861
756.016968	1927.314087	3137.313477	3022.804688	90.536461
756.333435	1931.400757	3130.818115	3019.965820	90.757820
756.649780	1933.981934	3129.010986	3017.857910	90.698715
756.966064	1936.562866	3129.484619	3016.438232	90.523567
757.282410	1940.885620	3129.742432	3017.427490	90.552696
757.598633	1945.940186	3132.732178	3020.718506	90.561646
757.914795	1951.403076	3138.883545	3026.891357	90.568924
758.230896	1957.575806	3146.303955	3033.537354	90.513680
758.546936	1962.092651	3158.283691	3041.172607	90.209663
758.862976	1970.932495	3168.198975	3049.152100	90.056778
759.178894	1979.664795	3177.253662	3064.164307	90.556915
759.494812	1988.332764	3188.308838	3075.327393	90.584694
759.810669	1994.247314	3199.622070	3084.855469	90.478760
760.126526	2002.269653	3208.569580	3096.426758	90.703568
760.442261	2008.829590	3214.806885	3107.868896	91.132668
760.757935	2013.389160	3224.119629	3117.439941	91.188820
761.073608	2015.905762	3225.711670	3121.806396	91.411407
761.389160	2018.207031	3227.905518	3123.053955	91.332420
761.704712	2024.917603	3230.164063	3122.860107	91.096931
762.020203	2029.025513	3229.217285	3121.527100	91.027252
762.335571	2033.348755	3242.917969	3125.957275	90.330383
762.650940	2045.221191	3264.253906	3151.874756	90.781288
762.966370	2069.826416	3312.926514	3202.095947	91.084343
763.281677	2110.368896	3394.571045	3283.955322	91.386421
763.596863	2154.266602	3499.401367	3384.548340	91.461594
763.911987	2199.627197	3606.425537	3480.968750	91.082108
764.227112	2239.911865	3690.006104	3559.795898	91.020569
764.542236	2273.378174	3756.508545	3622.921875	90.992928
764.857178	2297.596436	3808.837646	3671.336670	90.901451
765.172119	2311.985352	3837.636719	3704.802979	91.293312
765.487061	2324.567383	3858.413330	3728.461914	91.527740
765.801880	2333.579590	3864.199219	3740.377441	91.910347
766.116760	2329.127197	3845.895996	3722.611572	91.871902
766.431458	2312.781006	3798.449463	3671.293701	91.441177
766.746155	2276.217529	3709.492188	3586.293945	91.404419
767.060791	2232.878906	3593.026367	3477.441406	91.502029
767.375427	2185.518066	3471.462402	3365.427490	91.754318
767.689941	2143.964600	3367.729004	3265.372070	91.635895
768.004395	2109.250732	3278.169434	3178.458008	91.469772
768.318848	2084.258301	3200.246094	3105.632080	91.521950
768.633179	2062.449219	3138.819336	3046.528076	91.425697
768.947632	2041.629395	3083.199219	2991.660889	91.211502
769.261841	2020.831177	3027.923584	2941.504150	91.418915
769.576111	2006.678955	2983.724365	2894.208008	90.838058
769.890259	1989.106689	2941.031250	2859.257324	91.409622
770.204285	1975.750122	2907.843994	2823.295898	90.929230
770.518433	1961.920410	2873.883057	2790.022949	90.804436
770.832458	1952.607422	2845.836670	2760.169678	90.409294
771.146362	1943.423706	2820.134521	2733.392334	90.105949
771.460205	1933.056763	2796.303711	2709.754883	89.974037
771.774109	1919.915283	2772.106934	2687.903076	90.119141
772.087952	1911.527344	2752.814209	2666.674805	89.760994
772.401672	1906.257813	2728.961670	2647.317383	90.076103
772.715332	1899.999146	2712.916748	2628.218506	89.580956
773.028992	1892.600342	2696.527588	2616.410156	90.034241
773.342590	1889.029785	2679.643555	2599.117432	89.814735
773.656128	1883.308716	2663.641846	2582.943604	89.658485
773.969604	1882.491455	2651.618896	2567.565430	89.071579
774.283020	1878.211426	2633.035889	2554.230225	89.559738
774.596375	1872.275024	2618.776123	2543.648438	89.936028
774.909729	1869.930542	2604.322510	2532.958984	90.282639
775.223022	1867.220581	2592.988037	2523.452393	90.419022
775.536194	1863.198730	2577.394775	2511.665771	90.796783
775.849304	1855.670776	2568.318359	2500.890381	90.538383
776.162476	1850.422729	2556.790039	2493.749756	91.075424
776.475525	1848.530029	2546.122070	2482.071045	90.818268
776.788513	1845.002808	2538.701660	2472.972900	90.524887
777.101440	1843.153198	2527.668213	2466.004395	90.991608
777.414307	1839.561279	2518.742432	2461.208008	91.528854
777.727173	1836.227661	2514.161133	2455.852539	91.399071
778.039978	1838.034058	2506.654541	2450.346680	91.578499
778.352722	1836.076904	2499.858154	2445.334961	91.785973
778.665405	1835.302612	2495.126465	2440.882813	91.779068
778.977966	1834.872559	2493.212158	2438.538574	91.695229
779.290649	1836.442871	2491.233643	2436.430908	91.630493
779.603149	1840.034424	2487.964600	2431.484131	91.282936
779.915588	1839.238647	2485.254150	2427.720215	91.094032
780.227966	1840.120361	2478.371582	2426.558594	91.882042
780.540405	1838.744019	2478.543457	2423.827148	91.447899
780.852722	1835.496460	2476.543457	2419.654785	91.125664
781.164917	1834.592896	2467.983398	2413.073486	91.330795
781.477173	1832.033325	2461.509277	2405.524170	91.106079
781.789246	1829.624634	2456.046387	2400.233154	91.090149
782.101379	1827.323120	2448.131348	2392.081543	90.971481
782.413452	1823.838989	2439.441895	2383.349365	90.888199
782.725403	1822.591675	2429.354736	2373.326660	90.766068
783.037292	1816.784424	2421.999268	2363.583496	90.347931
783.349182	1815.794922	2409.911621	2354.377930	90.652733
783.661072	1809.579224	2401.222168	2341.924561	89.977470
783.972839	1804.868652	2387.263672	2330.869385	90.316833
784.284546	1804.739746	2378.101074	2318.502441	89.605400
784.596191	1801.664063	2370.938965	2310.480225	89.379692
784.907898	1797.104370	2363.884277	2301.769287	89.040718
785.219421	1795.104248	2357.883545	2293.101563	88.488922
785.530884	1795.211670	2350.872070	2283.164795	87.814987
785.842346	1793.276123	2343.709961	2274.755371	87.472687
786.153748	1790.522949	2338.892090	2267.808350	87.037247
786.465149	1789.232300	2331.643799	2263.549561	87.446022
786.776428	1784.156616	2330.697510	2259.204834	86.919060
787.087646	1785.490112	2327.385254	2257.290527	87.064888
787.398804	1789.339844	2330.976807	2259.355225	86.776833
787.709961	1790.759644	2338.977783	2270.302979	87.473091
788.021057	1800.373535	2356.098389	2281.594727	86.593430
788.332031	1810.288696	2372.960693	2299.489502	86.942444
788.643005	1817.429565	2386.016113	2316.007568	87.687263
788.953918	1820.397583	2399.824219	2331.772949	88.255409
789.264832	1826.333862	2412.987061	2344.355225	88.301125
789.575623	1831.344971	2423.225098	2356.442627	88.716896
789.886353	1835.711304	2428.795898	2365.691162	89.359909
790.197083	1839.690308	2433.312500	2371.906738	89.655754
790.507690	1840.830200	2432.882080	2373.756592	90.013458
790.818359	1839.883667	2430.000244	2372.358398	90.232124
791.128845	1834.033569	2417.439453	2361.389648	90.392654
791.439331	1825.021606	2397.372314	2346.871582	91.176613
791.749756	1813.493408	2376.122314	2325.815186	91.058563
792.060120	1803.513794	2354.442139	2305.318115	91.083412
792.370483	1794.286987	2334.676270	2284.885254	90.786087
792.680786	1784.500732	2314.157715	2267.205566	91.135368
792.990967	1776.564331	2292.499023	2248.966797	91.562454
793.301086	1769.896606	2278.476074	2231.588135	90.780609
793.611267	1764.067993	2265.033447	2220.554688	91.121391
793.921326	1759.529785	2255.290039	2211.564209	91.180046
794.231323	1754.927246	2244.105713	2198.466064	90.670143
794.541260	1753.980835	2236.771729	2191.067383	90.533302
794.851074	1751.786743	2231.502197	2184.916016	90.288788
795.161011	1751.528931	2228.921143	2183.840820	90.556961
795.470764	1754.389404	2235.287354	2185.733398	89.695534
795.780518	1759.572754	2239.739990	2189.519043	89.540947
796.090149	1766.197388	2247.396729	2196.509033	89.424820
796.399780	1772.499268	2258.581055	2208.682373	89.734512
796.709412	1774.069214	2264.280518	2216.274414	90.207062
797.018860	1780.285156	2268.474609	2219.715820	90.012321
797.328308	1782.737061	2277.400635	2220.640869	88.525581
797.637756	1785.447144	2283.745361	2228.104248	88.833771
797.947205	1786.630005	2284.154053	2231.394775	89.395630
798.256470	1786.974121	2284.003662	2231.265869	89.389404
798.565674	1787.748413	2281.400879	2229.480469	89.482399
798.874817	1783.619019	2271.808350	2223.006836	90.003571
799.183960	1780.306641	2263.377197	2215.070068	89.999985
799.493103	1774.843628	2252.300537	2202.918213	89.657219
799.802124	1768.068481	2240.364014	2189.991943	89.334633
800.111084	1765.423096	2231.007813	2177.968750	88.608078
800.419983	1757.594238	2220.597900	2168.849365	88.823296
800.728821	1752.002075	2205.671387	2161.084961	90.172043
801.037659	1750.432007	2192.680420	2149.191162	90.166328
801.346436	1747.657471	2185.152588	2137.834961	89.184425
801.655151	1742.603027	2176.721436	2130.629639	89.382668
801.963745	1741.591919	2167.816895	2119.445313	88.651161
802.272400	1741.463013	2161.794678	2111.293701	87.985443
802.580933	1737.268799	2153.707520	2106.927490	88.766647
802.889404	1734.343750	2144.631348	2102.023926	89.615227
803.197815	1729.095825	2138.264893	2097.034180	89.923309
803.506226	1725.095581	2133.769775	2094.667969	90.432037
803.814575	1721.826294	2127.876465	2087.312256	90.010048
804.122864	1719.697144	2125.983643	2083.376465	89.513023
804.431030	1715.395386	2124.499756	2081.656006	89.527428
804.739197	1712.749878	2121.488525	2078.773682	89.549599
805.047241	1713.330566	2120.800293	2083.828125	90.926399
805.355408	1710.276489	2122.757568	2087.850098	91.537193
805.663391	1708.082764	2125.682617	2089.226807	91.270157
805.971313	1711.201294	2130.242432	2088.538330	90.047729
806.279175	1714.319946	2137.211182	2090.624756	88.983826
806.587036	1716.363281	2140.802979	2088.903809	87.772308
806.894836	1720.126953	2140.845947	2089.183350	87.720406
807.202576	1724.278198	2142.029053	2090.904053	87.761841
807.510193	1724.471802	2142.308350	2087.893066	86.976898
807.817810	1725.396484	2135.447266	2085.075439	87.715714
808.125427	1725.224487	2131.231934	2083.139893	88.154884
808.432922	1721.933594	2127.898193	2070.837158	85.944336
808.740295	1718.040649	2119.531494	2062.083496	85.691330
809.047729	1717.632080	2107.551270	2055.652588	86.689888
809.355103	1711.997192	2094.883057	2045.973877	87.226173
809.662415	1704.103516	2085.247559	2037.112793	87.370979
809.969604	1702.103394	2072.256836	2025.326294	87.321327
810.276794	1697.048950	2061.631836	2013.970215	86.927086
810.583923	1689.972778	2053.394043	2005.366821	86.784698
810.890991	1685.821777	2045.887817	2000.269165	87.330475
811.197998	1681.670654	2042.532715	1994.289917	86.631233
811.505005	1678.207886	2036.574951	1988.418335	86.562210
811.811829	1677.541138	2028.573853	1981.707886	86.649117
812.118713	1675.046387	2022.917236	1973.836060	85.890976
812.425537	1671.669800	2017.002441	1967.362061	85.625343
812.732300	1667.927246	2014.357056	1963.963989	85.453598
813.038940	1665.281738	2007.947754	1958.135254	85.463249
813.345581	1662.550049	2005.667847	1955.855469	85.482430
813.652100	1659.560425	2000.721069	1953.790649	86.243896
813.958740	1655.753540	1994.419067	1949.446045	86.720520
814.265137	1654.699585	1989.364746	1947.467163	87.480743
814.571533	1651.064941	1985.213745	1942.735474	87.287621
814.877930	1647.687988	1978.890503	1935.508911	86.901794
815.184265	1642.418701	1974.631714	1932.024292	87.174667
815.490540	1640.332397	1971.986206	1931.271484	87.723732
815.796692	1638.417969	1970.760254	1930.002441	87.736191
816.102844	1639.880737	1969.448120	1929.701538	87.939774
816.408936	1640.934326	1967.319092	1929.228394	88.329514
816.714966	1639.321411	1963.705566	1932.691040	90.438950
817.020935	1640.224609	1964.114380	1934.110596	90.736420
817.326843	1644.332764	1969.319214	1935.422607	89.569839
817.632690	1644.784424	1974.051147	1934.153564	87.882896
817.938477	1646.569580	1978.933228	1938.175659	87.737053
818.244263	1651.344482	1986.310547	1945.445435	87.800224
818.549988	1655.624512	1993.666504	1954.865723	88.521904
818.855652	1664.614746	2002.420288	1965.125000	88.959541
819.161194	1673.196533	2017.282349	1977.234253	88.361015
819.466797	1682.531250	2035.585571	1997.774536	89.290306
819.772278	1697.113647	2064.341797	2023.261597	88.813438
820.077698	1716.857910	2098.711670	2052.706055	87.952034
820.383057	1736.817505	2138.243408	2089.699707	87.907181
820.688354	1759.551514	2182.098389	2134.393555	88.710167
820.993652	1794.373047	2239.266846	2191.239258	89.204704
821.298828	1849.239868	2335.816162	2285.315430	89.621208
821.604004	1957.984497	2530.765381	2468.112305	89.061600
821.909058	2141.426758	2852.417969	2773.096191	88.843491
822.214111	2372.982178	3276.234131	3174.307617	88.715607
822.519165	2622.045410	3728.139160	3611.221680	89.429695
822.824036	2852.590088	4134.684570	4001.764648	89.632599
823.128906	3047.818604	4480.727051	4331.977539	89.619049
823.433716	3204.956299	4764.031250	4606.591797	89.901741
823.738525	3333.811035	4996.641113	4829.802734	89.966599
824.043213	3437.909912	5184.965332	5010.083008	89.989883
824.347900	3516.478760	5324.487793	5149.455078	90.319038
824.652466	3560.140381	5400.970703	5224.496582	90.413338
824.957031	3532.158447	5357.825684	5187.761230	90.684807
825.261536	3423.585693	5163.371094	5006.426270	90.979073
825.565979	3249.542725	4848.858887	4712.949219	91.502014
825.870300	3048.249023	4486.792480	4364.088867	91.470291
826.174622	2863.623535	4162.429688	4052.545166	91.539574
826.478821	2716.530029	3907.107666	3808.407227	91.709869
826.783142	2622.389404	3735.882568	3640.386719	91.423759
827.087280	2566.619141	3632.514648	3536.782227	91.018593
827.391357	2532.292236	3564.441406	3474.946777	91.329292
827.695435	2504.052246	3512.069580	3420.939941	90.959518
827.999451	2473.704346	3458.062744	3372.632813	91.321259
828.303406	2449.722900	3408.035156	3326.433594	91.484863
828.607239	2422.622559	3363.277100	3279.889893	91.135193
828.911011	2400.340332	3317.550781	3234.874023	90.986061
829.214844	2377.778320	3273.803711	3193.169678	91.000923
829.518616	2349.990234	3221.087402	3140.109375	90.703903
829.822205	2310.307861	3143.981201	3068.315674	90.923843
830.125793	2246.235352	3029.880615	2959.291260	90.992180
830.429382	2162.999268	2886.852539	2822.242188	91.074112
830.732849	2077.978027	2735.048584	2672.008545	90.405891
831.036316	1998.312134	2597.225098	2539.475830	90.357651
831.339661	1931.916870	2478.156494	2422.343018	89.782234
831.642944	1874.963379	2376.767822	2324.696289	89.623146
831.946228	1826.355347	2293.552979	2245.202881	89.651039
832.249512	1789.210938	2229.093506	2178.872070	88.582993
832.552673	1762.218384	2179.517334	2133.511719	88.975380
832.855774	1744.603394	2150.331055	2106.519287	89.201683
833.158813	1744.388306	2141.878418	2101.808838	89.919350
833.461731	1761.465576	2169.150635	2125.037598	89.179626
833.764771	1792.566284	2216.683350	2172.527100	89.588661
834.067627	1828.678223	2274.453857	2230.857178	90.220039
834.370422	1863.521118	2330.224365	2283.272217	89.939613
834.673157	1895.202637	2384.897461	2331.643799	89.125130
834.975891	1919.463745	2426.300781	2373.369385	89.556526
835.278564	1941.595581	2461.617188	2408.147705	89.717834
835.581177	1955.188599	2485.383301	2433.204590	90.158577
835.883728	1963.296997	2501.449951	2442.883057	89.117058
836.186218	1962.845337	2501.858398	2440.108643	88.543922
836.488647	1949.682495	2482.694580	2416.256348	87.535324
836.791077	1918.388184	2430.537598	2369.282959	88.039696
837.093384	1879.953247	2358.593506	2302.220947	88.222351
837.395630	1831.882813	2283.444336	2225.415527	87.149300
837.697815	1787.984863	2209.714844	2154.912109	87.005257
838.000061	1746.109009	2140.351318	2088.904053	86.950340
838.302124	1713.395020	2077.698242	2027.132813	86.119965
838.604126	1681.778198	2021.906372	1973.341309	85.721542
838.906128	1653.387817	1971.297974	1927.378540	86.184952
839.208069	1629.255737	1927.894653	1887.997314	86.640274
839.510010	1614.049316	1895.783325	1858.660278	86.823372
839.811829	1602.564087	1873.436401	1836.894165	86.509422
840.113586	1595.337402	1860.596191	1826.914551	87.302345
840.415222	1589.250732	1854.724487	1819.494263	86.729301
840.716919	1588.153809	1848.680786	1817.752075	88.128403
841.018555	1584.669434	1844.207153	1813.106323	88.016838
841.320068	1587.228882	1840.270996	1810.934082	88.406311
841.621521	1584.884399	1839.905151	1808.912231	87.846901
841.922974	1584.669434	1837.496582	1805.729004	87.435059
842.224365	1581.486328	1836.507080	1800.803589	85.999771
842.525635	1580.367920	1829.796509	1796.007324	86.453362
842.826965	1575.205933	1815.300049	1784.479004	87.162933
843.128174	1562.042969	1796.114868	1770.090332	88.881821
843.429260	1550.062988	1774.564087	1748.023071	88.177780
843.730408	1537.050659	1751.808472	1727.203247	88.542801
844.031433	1523.134888	1728.859375	1706.534058	89.147957
844.332397	1514.166016	1708.362183	1686.144409	88.559105
844.633362	1501.132324	1689.413574	1667.410889	88.313927
844.934204	1490.485840	1670.378906	1649.301270	88.283241
845.235046	1481.495483	1652.462891	1634.912231	89.734497
845.535828	1475.924927	1636.116699	1622.953857	91.783073
845.836487	1466.848511	1625.061401	1609.468262	90.144203
846.137146	1458.696899	1616.716431	1598.369995	88.389771
846.437744	1452.437988	1608.263672	1590.175415	88.391991
846.738281	1447.577026	1599.789551	1579.571899	86.717484
847.038757	1441.984985	1591.508911	1569.355835	85.184258
847.339172	1438.350098	1582.497192	1560.558960	84.780663
847.639526	1433.231323	1576.689819	1557.182129	86.401855
847.939819	1429.703979	1571.979614	1552.794556	86.515572
848.240112	1428.284424	1570.302002	1551.633179	86.854568
848.540283	1425.251831	1569.205078	1547.030396	84.595917
848.840393	1424.499146	1570.624512	1542.707397	80.895096
849.140564	1420.412598	1567.936035	1540.126465	81.149048
849.440552	1419.036011	1564.043091	1534.340576	79.516510
849.740540	1419.294189	1560.580444	1527.845337	76.830650
850.040405	1416.863770	1562.344116	1524.726563	74.142517
850.340210	1417.358398	1559.139526	1522.296143	74.013901
850.640137	1417.380005	1556.988403	1517.886841	71.991966
850.939819	1416.024902	1553.869873	1513.778931	70.915916
851.239502	1417.530518	1549.202759	1511.714111	71.528816
851.539185	1414.885132	1545.438721	1508.638550	71.812210
851.838745	1414.863403	1543.890259	1505.971558	70.611778
852.138245	1411.314575	1536.190308	1503.283081	73.648018
852.437744	1412.045898	1532.598511	1502.723877	75.218590
852.737122	1410.927490	1528.555054	1504.121826	79.228317
853.036499	1408.970215	1525.651489	1503.928223	81.382385
853.335815	1410.669434	1518.682861	1504.164917	86.559128
853.635010	1409.443481	1517.478394	1502.702271	86.322823
853.934204	1408.518677	1517.736328	1502.035522	85.624298
854.233276	1407.077637	1515.478149	1502.229248	87.777824
854.532410	1403.206177	1514.230591	1501.239746	88.299110
854.831482	1400.990723	1513.628418	1498.314575	86.404335
855.130371	1398.237671	1508.208252	1495.798096	88.715019
855.429260	1398.581909	1509.326660	1494.163574	86.308075
855.728088	1397.248413	1509.455933	1490.012573	82.671967
856.026855	1395.957886	1508.681641	1487.087524	80.843330
856.325623	1396.495728	1506.917847	1485.560425	80.658386
856.624329	1393.054443	1508.487915	1484.958252	79.616257
856.922913	1392.538208	1505.713379	1481.689087	78.772469
857.221436	1389.935669	1502.487183	1481.753662	81.578636
857.519958	1390.796021	1502.250488	1481.194336	81.107841
857.818420	1394.280151	1502.659302	1478.828491	78.011627
858.116821	1395.871826	1501.046143	1476.914185	77.055275
858.415161	1396.108398	1502.444214	1478.097168	77.103622
858.713379	1397.656982	1498.357544	1479.301636	81.076660
859.011658	1397.592529	1495.496948	1477.645386	81.766335
859.309814	1397.162231	1494.722778	1476.849731	81.680046
859.607910	1396.087036	1493.776489	1475.236572	81.021576
859.905945	1396.065430	1491.152344	1472.547974	80.434349
860.203979	1394.774902	1491.647217	1472.827637	80.572800
860.501953	1395.377197	1493.131226	1470.375732	76.721680
860.799744	1395.162231	1489.001709	1465.256836	74.696289
861.097656	1392.258667	1487.668091	1462.955444	74.098320
861.395325	1388.752808	1486.291626	1462.568237	75.678001
861.693115	1386.924561	1484.721558	1460.697144	75.434402
861.990784	1384.214478	1486.678833	1458.374146	72.376068
862.288330	1384.515747	1485.603394	1458.589355	73.276619
862.585815	1382.988525	1484.850708	1457.578491	73.226357
862.883301	1381.461670	1483.237427	1457.255981	74.471870
863.180786	1379.676270	1482.119141	1454.373901	72.916382
863.478149	1379.052612	1479.710083	1455.986938	76.431808
863.775452	1380.816284	1477.000122	1457.019409	79.226540
864.072693	1380.063599	1478.957520	1458.804443	79.621521
864.369873	1378.385864	1477.236816	1461.062622	83.637794
864.667114	1382.278931	1478.011108	1461.772461	83.037422
864.964111	1385.526611	1479.495239	1462.116699	81.506020
865.261169	1385.741821	1477.559448	1461.084229	82.056580
865.558105	1386.085815	1478.484253	1459.944336	79.934814
865.855042	1386.623535	1479.710327	1461.449829	80.383362
866.151917	1386.558960	1479.387695	1459.105591	78.151047
866.448730	1387.311646	1479.215698	1460.568237	79.709862
866.745422	1388.300903	1479.581177	1456.309448	74.505196
867.042114	1384.881226	1478.871582	1454.524414	74.096100
867.338806	1383.504639	1476.828247	1453.750000	75.270729
867.635376	1384.429565	1473.279419	1450.115234	73.928841
867.931824	1381.697998	1470.418823	1450.072266	77.066765
868.228271	1377.482544	1468.289551	1448.265503	77.948784
868.524658	1376.987793	1467.644287	1449.297974	79.762825
868.821045	1375.654297	1464.762207	1448.588013	81.848755
869.117310	1372.944336	1463.235229	1446.996582	82.015190
869.413574	1373.718628	1464.590088	1449.405396	83.289925
869.709717	1373.309937	1463.858887	1450.695923	85.463150
870.005859	1372.535645	1463.321167	1451.857300	87.372581
870.301880	1374.751099	1464.073975	1451.513184	85.937767
870.597900	1373.482178	1465.471924	1449.555908	82.698051
870.893860	1372.944458	1469.988647	1451.255127	80.695885
871.189636	1372.858521	1471.795288	1448.566650	76.521736
871.485535	1375.181274	1473.128784	1448.652710	75.011032
871.781311	1373.159546	1473.838379	1445.856567	72.206856
872.077026	1372.944336	1476.053711	1449.233276	73.988365
872.372681	1373.116333	1476.914063	1446.286743	70.493263
872.668274	1372.557129	1475.623535	1443.082031	68.426666
872.963806	1373.180908	1475.322388	1442.157227	67.530174
873.259338	1372.987305	1476.806519	1441.490356	65.983017
873.554688	1371.202026	1477.107666	1440.952637	65.861092
873.850098	1372.965698	1475.989258	1443.598145	68.559509
874.145447	1374.170166	1474.548218	1442.802368	68.373711
874.440674	1374.815430	1472.956665	1443.232544	69.712914
874.735840	1375.740356	1470.762817	1445.275757	73.177856
875.031006	1375.310181	1471.816772	1447.727661	75.038895
875.326050	1376.858887	1473.322266	1449.512817	75.317627
875.621094	1378.493530	1472.999756	1452.222778	78.015228
875.916077	1378.041870	1472.397461	1456.696411	83.359703
876.210999	1377.955688	1474.505249	1457.535400	82.423691
876.505798	1377.288940	1473.386719	1458.675293	84.691193
876.800598	1377.891113	1472.096313	1459.234497	86.347023
877.095337	1378.450317	1474.225586	1458.869019	83.966042
877.390015	1380.256958	1476.441040	1458.675293	81.529434
877.684692	1383.956421	1477.709961	1462.546753	83.826523
877.979187	1384.063965	1475.107544	1462.374756	86.014626
878.273804	1385.999634	1474.612793	1463.342529	87.281502
878.568237	1385.462036	1472.074829	1460.869141	87.062317
878.862610	1389.720703	1475.301147	1464.332031	87.182686
879.156921	1391.548828	1481.366455	1463.858765	80.507515
879.451172	1393.570557	1484.979614	1467.730225	81.129456
879.745422	1397.377441	1492.400024	1475.924805	82.661781
880.039612	1404.453613	1503.562622	1485.775513	82.052986
880.333679	1414.175293	1517.392212	1499.970825	83.121582
880.627686	1426.692871	1541.588989	1526.017090	86.446976
880.921692	1448.071899	1581.056152	1560.085815	84.230965
881.215698	1485.151855	1648.505371	1615.856201	80.013184
881.509460	1540.857544	1743.699951	1705.049927	80.945786
881.803345	1615.834473	1867.951904	1824.441040	82.741829
882.097046	1697.027344	2007.667969	1958.500732	84.172310
882.390808	1781.962769	2147.577881	2095.205811	85.675629
882.684448	1864.316895	2284.390625	2224.038818	85.633041
882.978027	1938.240112	2405.029053	2338.827393	85.817642
883.271545	2002.420044	2512.375732	2444.991211	86.786201
883.565002	2054.275879	2604.021729	2534.615234	87.374802
883.858398	2095.011963	2674.782959	2601.031738	87.279251
884.151733	2119.531494	2717.541016	2646.951416	88.195908
884.445068	2122.865479	2726.273438	2658.845459	88.825478
884.738281	2102.690674	2690.333740	2624.109863	88.730598
885.031433	2051.652100	2612.775635	2546.573486	88.201859
885.324585	1987.816040	2503.751221	2444.302979	88.477577
885.617676	1917.505981	2386.231201	2331.364014	88.294380
885.910645	1845.475830	2264.646240	2219.006104	89.111794
886.203552	1777.919189	2154.202393	2111.702393	88.705315
886.496521	1716.234253	2049.866943	2009.754272	87.976997
886.789368	1661.582153	1953.898071	1916.237549	87.116501
887.082153	1610.737183	1865.629028	1835.023071	87.992569
887.374817	1567.570679	1788.802368	1761.487061	87.653076
887.667480	1530.146606	1719.998047	1697.909424	88.365311
887.960083	1495.884277	1663.797607	1646.440552	89.663086
888.252625	1474.569824	1620.888794	1609.081177	91.930222
888.545166	1457.858154	1588.239746	1577.119995	91.471382
888.837524	1442.092651	1563.978638	1553.482544	91.388596
889.129883	1430.650513	1542.836304	1534.878174	92.906296
889.422241	1421.100952	1526.576172	1520.747559	94.473953
889.714478	1416.218750	1510.144165	1513.456299	103.526344
890.006714	1430.177124	1493.819580	1488.614746	91.821754
890.298767	1380.493774	1503.756104	1472.290039	74.472275
890.590881	1384.515625	1464.009399	1479.624268	119.642883
890.882935	1380.020264	1486.011963	1469.451050	84.375275
>>>>>End Processed Spectral Data<<<<<
