Jaz Data File
++++++++++++++++++++++++++++++++++++
Date: Thu Dec 19 19:55:34 2019
User: jaz
Dark Spectrum Present: Yes
Reference Spectrum Present: Yes
Processed Spectrum Present: Yes
Spectrometers: JAZA2928
Integration Time (usec): 32200 (JAZA2928)
Spectra Averaged: 10 (JAZA2928)
Boxcar Smoothing: 5 (JAZA2928)
Correct for Electrical Dark: No (JAZA2928)
Strobe/Lamp Enabled: Yes (JAZA2928)
Correct for Detector Non-linearity: No (JAZA2928)
Correct for Stray Light: No (JAZA2928)
Number of Pixels in Processed Spectrum: 2048
>>>>>Begin Processed Spectral Data<<<<<
W	D	R	S	P
190.104553	0.000000	0.000000	0.000000	0.000000
190.488098	0.000000	0.000000	0.000000	0.000000
190.871613	1222.216064	1221.506226	1212.279053	1399.896851
191.255096	1238.540649	1233.335571	1230.260010	159.087708
191.638535	0.000000	0.000000	0.000000	0.000000
192.021942	1036.773560	1030.450195	1025.847656	172.786240
192.405334	1155.648560	1147.669067	1142.507324	164.687622
192.788696	1274.652466	1262.909058	1258.242065	139.741379
193.172012	1281.298462	1269.963745	1266.049438	134.533783
193.555313	1285.621704	1275.921387	1269.985352	161.194229
193.938568	1287.686401	1279.212036	1274.179321	159.387512
194.321793	1290.460938	1281.040405	1276.953979	143.377869
194.704987	1289.019897	1284.245117	1277.685181	237.387192
195.088150	1289.234985	1288.267090	1281.556641	793.303040
195.471298	1289.493042	1288.654419	1280.094116	1120.756958
195.854401	1289.772705	1286.008911	1280.889771	236.010117
196.237457	1290.568481	1284.460205	1279.018677	189.084518
196.620499	1288.439331	1282.847168	1278.523926	177.308945
197.003494	1284.438721	1283.922485	1277.599121	1324.899536
197.386475	1282.524536	1283.363403	1275.727905	-810.215393
197.769424	1281.212402	1279.771484	1275.857056	371.662140
198.152344	1276.953857	1280.287720	1275.749390	-36.128300
198.535217	1276.007568	1284.933472	1277.039917	11.565761
198.918076	1276.867920	1284.051636	1277.642090	10.776733
199.300903	1277.900269	1285.406616	1276.158081	-23.209522
199.683670	1277.362671	1288.159668	1277.039917	-2.989293
200.066422	1276.029175	1290.396362	1278.459473	16.915613
200.449142	1272.996338	1293.257080	1280.158569	35.350292
200.831848	1272.308105	1295.923950	1279.663940	31.147881
201.214508	1273.082520	1297.494019	1281.191040	33.215988
201.597137	1270.372437	1297.322144	1280.416748	37.270576
201.979736	1270.437012	1300.462280	1279.190918	29.155130
202.362274	1269.383057	1301.989380	1275.426880	18.535740
202.744827	1266.500977	1300.075073	1273.813721	21.780910
203.127319	1266.672974	1301.387085	1273.706177	20.260357
203.509796	1265.511597	1299.752441	1271.705933	18.090488
203.892227	1264.479126	1296.504761	1269.899292	16.924461
204.274643	1262.263794	1295.128174	1265.318115	9.293714
204.657013	1263.597534	1293.515137	1262.952271	-2.156803
205.039352	1263.640503	1292.095581	1260.392700	-11.413790
205.421661	1264.092163	1289.751221	1258.629028	-21.291252
205.803940	1264.909424	1291.364380	1257.618164	-27.561035
206.186188	1265.898804	1292.547241	1256.327637	-35.916428
206.568405	1264.973755	1292.353638	1257.037354	-28.986250
206.950592	1264.758911	1290.504028	1255.316895	-36.674980
207.332748	1262.328491	1288.654297	1250.907715	-43.382439
207.714859	1261.661621	1287.793945	1251.165894	-40.163773
208.096939	1260.478760	1288.116577	1252.026245	-30.583149
208.478989	1260.220581	1289.772583	1258.069946	-7.277459
208.861008	1258.392456	1290.697388	1259.016357	1.931288
209.243011	1256.542847	1291.041504	1261.339233	13.903111
209.624969	1254.563965	1292.740723	1261.425171	17.972208
210.006897	1256.112671	1290.503906	1261.876831	16.760550
210.388794	1252.155273	1290.288940	1262.479004	27.072483
210.770645	1254.585693	1292.611816	1263.403809	23.189625
211.152481	1253.273560	1292.353638	1264.909424	29.774414
211.534286	1252.133789	1291.041626	1266.737671	37.534550
211.916061	1251.208862	1291.536255	1269.017456	44.160042
212.297791	1251.488403	1293.773193	1269.727295	43.133457
212.679489	1250.240967	1292.418213	1267.318237	40.489296
213.061157	1249.832275	1292.224731	1267.060303	40.639370
213.442795	1248.907471	1290.891113	1267.425903	44.108685
213.824402	1249.208618	1290.891113	1266.716064	42.001915
214.205963	1249.251587	1292.998901	1268.544312	44.100365
214.587524	1250.778687	1292.697754	1269.555176	44.792240
214.969025	1250.004395	1290.955688	1270.996216	51.260460
215.350510	1251.638916	1293.730347	1270.544556	44.915649
215.731949	1254.628540	1297.343628	1268.716309	32.980778
216.113358	1253.961792	1301.021484	1268.415161	30.712843
216.494736	1254.542603	1302.505493	1269.576660	31.345186
216.876083	1258.156006	1306.893066	1268.608765	21.447248
217.257401	1258.543091	1309.237427	1269.748657	22.104177
217.638702	1260.457275	1314.420898	1271.576904	20.605787
218.019943	1260.607910	1316.421265	1272.308105	20.963076
218.401169	1260.048706	1319.152710	1272.974854	21.870173
218.782349	1262.521973	1321.927246	1273.039429	17.704584
219.163498	1263.059692	1323.755371	1270.802612	12.756954
219.544632	1262.479004	1325.282593	1270.200317	12.294382
219.925705	1262.070313	1328.229248	1273.577026	17.392532
220.306778	1261.704712	1329.971313	1272.243652	15.437916
220.687805	1260.328247	1330.100464	1269.576660	13.255152
221.068802	1259.102417	1331.304810	1270.135864	15.281277
221.449738	1259.575439	1335.176270	1270.974731	15.078263
221.830673	1260.844482	1340.144653	1270.544556	12.232097
222.211563	1260.564819	1345.908691	1270.329590	11.441677
222.592438	1260.005615	1350.704956	1268.845581	9.746449
222.973267	1257.661133	1356.189453	1271.082153	13.621485
223.354065	1257.489136	1360.684570	1273.749268	15.756639
223.734848	1257.983765	1367.545776	1276.652832	17.039726
224.115555	1257.058838	1371.632324	1277.212036	17.589758
224.496262	1259.274292	1378.923584	1280.610229	17.832064
224.876923	1259.166748	1387.118164	1282.825684	18.490562
225.257568	1258.413940	1396.839844	1284.653809	18.955894
225.638168	1257.467651	1405.399902	1286.976685	19.947668
226.018723	1255.510376	1415.358154	1289.901855	21.515144
226.399277	1256.671875	1429.618042	1295.795044	22.621588
226.779785	1256.284668	1448.308594	1300.698730	23.129442
227.160263	1256.564331	1469.364868	1306.118774	23.286804
227.540695	1255.811523	1498.056519	1312.657227	23.466204
227.921112	1255.682495	1535.050659	1322.378906	23.874020
228.301483	1256.327637	1587.142944	1334.616943	23.665564
228.681824	1255.940552	1654.613770	1351.651367	24.007336
229.062134	1257.187988	1742.345215	1372.944214	23.859528
229.442413	1256.822388	1835.195313	1394.495239	23.803474
229.822647	1256.736450	1917.162231	1412.282349	23.552366
230.202881	1256.370850	1976.868774	1426.284180	23.582766
230.583054	1255.919067	2022.057129	1437.791016	23.738796
230.963196	1257.231079	2059.610352	1444.845581	23.382271
231.343292	1256.671875	2089.786133	1452.760620	23.536837
231.723404	1257.381592	2115.445068	1457.729004	23.348787
232.103439	1258.865601	2118.628174	1457.578369	23.112516
232.483459	1259.683105	2104.992188	1453.018799	22.871597
232.863434	1258.586060	2070.450195	1441.770142	22.563391
233.243393	1258.285034	2015.389771	1428.628784	22.499365
233.623306	1259.682983	1957.339478	1415.207764	22.292458
234.003174	1262.436035	1916.216064	1402.883667	21.482399
234.383041	1264.672852	1894.191772	1394.452515	20.615688
234.762848	1262.823120	1883.179688	1388.516357	20.261450
235.142639	1262.758667	1874.318359	1387.806519	20.447367
235.522385	1263.877075	1869.134888	1383.203735	19.715014
235.902115	1263.984619	1861.284424	1381.827148	19.729210
236.281799	1261.790894	1867.285156	1381.547607	19.778339
236.661438	1260.521851	1877.587524	1383.891968	19.993029
237.041077	1259.962646	1886.642456	1388.107544	20.448225
237.420654	1258.521606	1899.052368	1389.720703	20.482872
237.800217	1259.618530	1908.171875	1390.968140	20.252707
238.179733	1258.392456	1913.032715	1393.076050	20.573681
238.559219	1255.639526	1920.151855	1397.184082	21.300516
238.938690	1257.015991	1925.270630	1398.302368	21.142595
239.318100	1257.059082	1934.110840	1400.087524	21.125185
239.697510	1257.037476	1949.876099	1404.905396	21.342333
240.076859	1259.962524	1975.535156	1409.981323	20.964859
240.456177	1263.360840	2010.206177	1416.283081	20.475758
240.835464	1266.350464	2052.361816	1425.467041	20.243547
241.214722	1268.243286	2118.499023	1434.349854	19.536072
241.593948	1271.835083	2203.584961	1450.351929	19.159309
241.973129	1272.007080	2313.103760	1469.838135	19.002178
242.352295	1273.104004	2449.937988	1495.798340	18.923174
242.731415	1274.028809	2594.773438	1521.435669	18.732376
243.110519	1276.136597	2738.920410	1548.686646	18.632284
243.489578	1279.879028	2854.095703	1569.721436	18.411850
243.868607	1280.524292	2936.471680	1584.884644	18.379831
244.247604	1278.610107	2992.048340	1594.520264	18.437206
244.626541	1278.545654	3030.138916	1601.940308	18.462885
245.005493	1277.706665	3060.357910	1604.306274	18.321005
245.384369	1278.093872	3082.252930	1609.080933	18.345781
245.763229	1277.039917	3105.395264	1613.038574	18.377098
246.142059	1276.695801	3143.271240	1623.512939	18.580399
246.520859	1278.373413	3211.688232	1637.170654	18.558655
246.899612	1283.535278	3337.144531	1662.162964	18.437181
247.278336	1285.127075	3500.261475	1692.661377	18.397724
247.657043	1286.783081	3670.949219	1724.191895	18.346407
248.035690	1292.074097	3825.097412	1752.948364	18.194632
248.414322	1294.633545	3956.468994	1778.005005	18.159328
248.792908	1296.332642	4057.556885	1800.739136	18.267496
249.171478	1296.440308	4134.491211	1818.956543	18.411095
249.550003	1297.472656	4170.065430	1824.527222	18.347694
249.928482	1299.150269	4163.354980	1824.484009	18.341349
250.306961	1300.655762	4105.949707	1810.826538	18.186001
250.685364	1299.193237	3984.687500	1788.694824	18.227617
251.063782	1295.364746	3801.374268	1752.216919	18.230265
251.442123	1292.891357	3596.402344	1713.201294	18.246492
251.820450	1288.761841	3427.220215	1682.294434	18.402630
252.198761	1285.148438	3321.271729	1660.893799	18.453959
252.576996	1283.771973	3252.962402	1650.677612	18.632309
252.955246	1284.266724	3202.784180	1636.761841	18.373308
253.333420	1282.395508	3155.960938	1625.878906	18.333141
253.711578	1282.094360	3120.386719	1619.684448	18.364330
254.089706	1281.234009	3094.641602	1615.425903	18.428946
254.467804	1278.696167	3074.488281	1612.479370	18.586962
254.845871	1278.954224	3059.067383	1606.887451	18.422045
255.223877	1279.362915	3035.322754	1601.080078	18.321442
255.601898	1279.986572	3003.275635	1596.176270	18.348036
255.979828	1278.072266	2957.786133	1587.056763	18.395067
256.357727	1275.921509	2903.155518	1577.829956	18.553474
256.735657	1277.986328	2861.386719	1569.377319	18.402863
257.113525	1275.469849	2853.579346	1569.011719	18.600855
257.491333	1275.814087	2883.432617	1576.582397	18.708935
257.869110	1277.921875	2942.601318	1589.422729	18.712362
258.246887	1279.448975	3030.805664	1605.725830	18.629950
258.624573	1278.932617	3157.036133	1629.728882	18.678217
259.002289	1279.792969	3341.295898	1666.270996	18.747391
259.379944	1281.255493	3600.080322	1715.890137	18.743748
259.757538	1282.567505	3934.035400	1776.220215	18.618092
260.135162	1288.331665	4299.199219	1841.260254	18.364428
260.512665	1292.977417	4625.433105	1899.826538	18.210268
260.890228	1291.622437	4865.914551	1941.874878	18.192482
261.267700	1292.805298	5017.804199	1968.738403	18.145861
261.645142	1295.235718	5103.686035	1982.137939	18.036266
262.022552	1294.805542	5155.219238	1989.751831	18.001862
262.399994	1293.084839	5181.330078	1991.321777	17.957638
262.777313	1296.268066	5170.166992	1986.159790	17.808718
263.154602	1296.010010	5093.103516	1970.781616	17.770741
263.531921	1295.536865	4939.601074	1939.767212	17.678896
263.909149	1293.988281	4691.892578	1893.481934	17.643042
264.286377	1290.611450	4405.685547	1841.002075	17.668619
264.663574	1287.385254	4147.826172	1793.749146	17.702303
265.040710	1289.364136	3970.470947	1758.949097	17.514593
265.417816	1288.245605	3871.103271	1739.333862	17.464697
265.794891	1288.611206	3844.691650	1733.892212	17.420460
266.171936	1288.976929	3865.167236	1732.988770	17.235210
266.548950	1289.170532	3915.560791	1741.527344	17.223518
266.925934	1287.621948	3973.847412	1749.894165	17.208986
267.302887	1286.912231	4037.941162	1760.734253	17.223448
267.679810	1286.202515	4101.884766	1772.327026	17.264893
268.056671	1288.869385	4178.711426	1787.253540	17.246069
268.433502	1289.901733	4260.613770	1801.578125	17.224033
268.810333	1290.138184	4344.064453	1815.278564	17.195581
269.187073	1288.159546	4420.568848	1828.334106	17.244699
269.563843	1291.127808	4495.244629	1839.690308	17.120554
269.940521	1290.525513	4550.649414	1848.293457	17.108795
270.317200	1290.826538	4602.333496	1861.413330	17.230427
270.693848	1291.837402	4668.664063	1875.049561	17.271013
271.070435	1295.063599	4802.809570	1895.740234	17.124290
271.447021	1298.569458	4975.347168	1923.184326	16.988104
271.823547	1300.892456	5153.003418	1950.004761	16.850821
272.200043	1301.236450	5297.623535	1969.942993	16.732777
272.576538	1301.731201	5417.380371	1987.730103	16.668060
272.952972	1303.602417	5524.404297	2002.678101	16.562628
273.329346	1305.452026	5626.266602	2018.594116	16.504807
273.705688	1305.495117	5704.082520	2030.660156	16.486317
274.082062	1306.118896	5763.487793	2038.725708	16.435858
274.458344	1304.914429	5788.759766	2039.973145	16.393490
274.834595	1307.861206	5770.413574	2033.370239	16.257715
275.210846	1304.936035	5690.102051	2022.078491	16.353827
275.587006	1301.774292	5586.046387	2003.689331	16.383532
275.963165	1300.913818	5493.390137	1990.913330	16.458040
276.339294	1300.182495	5446.760742	1983.235107	16.472681
276.715393	1300.763184	5423.337891	1978.890503	16.449121
277.091461	1301.064331	5414.713867	1977.427856	16.441935
277.467438	1302.591553	5411.982422	1976.158691	16.390924
277.843445	1302.526978	5416.176270	1977.513794	16.408466
278.219452	1303.602417	5431.188965	1982.052002	16.436956
278.595337	1304.226196	5454.288574	1986.009399	16.428263
278.971191	1304.570313	5486.980957	1988.353882	16.349030
279.347046	1307.344849	5512.983887	1992.182373	16.283792
279.722870	1309.753784	5537.567871	1992.655518	16.152597
280.098663	1310.377441	5561.312988	1992.289917	16.041468
280.474396	1310.979614	5597.123535	1996.591431	15.996005
280.850098	1312.055054	5649.495605	2006.420654	16.008648
281.225800	1313.108887	5724.945801	2017.948853	15.976111
281.601440	1313.517578	5833.131348	2033.757324	15.935869
281.977051	1313.797119	5982.203613	2056.125732	15.901114
282.352600	1314.700439	6137.964355	2078.042480	15.826256
282.728149	1317.496582	6282.090332	2100.496826	15.771688
283.103668	1317.475098	6392.448242	2119.122803	15.796098
283.479156	1319.604370	6480.501953	2130.414551	15.710643
283.854553	1319.668945	6564.039551	2143.405518	15.707063
284.229950	1320.851929	6661.018555	2160.568848	15.724545
284.605347	1322.895142	6765.247070	2175.818115	15.671955
284.980652	1320.787354	6863.861328	2188.959229	15.662281
285.355988	1320.916382	6953.184570	2203.004150	15.661325
285.731201	1319.260254	7031.666992	2217.220947	15.719481
286.106445	1319.776489	7098.621582	2226.899658	15.697309
286.481659	1320.228027	7166.027832	2236.814697	15.679406
286.856781	1320.464722	7232.853516	2247.117188	15.673064
287.231934	1318.894653	7298.947266	2254.451416	15.644624
287.607025	1316.464233	7346.716797	2262.688721	15.691292
287.982056	1316.894409	7365.557617	2267.700439	15.719275
288.357086	1315.732910	7357.599609	2263.613770	15.688543
288.732086	1311.667969	7326.048340	2256.172119	15.704098
289.107025	1310.850708	7290.688965	2248.364746	15.677916
289.481934	1310.571045	7261.221680	2242.256348	15.656865
289.856842	1311.818359	7236.639160	2235.180420	15.584641
290.231659	1311.022583	7237.713867	2232.835938	15.553591
290.606506	1311.689331	7248.296387	2233.136963	15.521453
290.981262	1312.184082	7264.535645	2235.244629	15.507494
291.355988	1309.947144	7285.590820	2243.976807	15.630612
291.730713	1311.646362	7312.411133	2249.826904	15.634350
292.105377	1310.377319	7339.360840	2256.946045	15.700304
292.480011	1310.484985	7357.492188	2265.656982	15.795780
292.854614	1312.549683	7364.181152	2275.980957	15.920191
293.229187	1313.861694	7380.162109	2287.939453	16.057196
293.603729	1313.517578	7405.820801	2302.736816	16.237196
293.978241	1312.506714	7443.051270	2320.352051	16.439735
294.352692	1314.033691	7473.033203	2340.999756	16.674234
294.727081	1313.603638	7494.950195	2361.797852	16.957376
295.101501	1311.560425	7516.952637	2385.435303	17.305511
295.475830	1314.722168	7571.195801	2409.201660	17.493553
295.850189	1317.367676	7669.617676	2446.152588	17.769844
296.224457	1320.572266	7832.454590	2495.061768	18.036098
296.598694	1323.067261	8046.718262	2557.413574	18.358274
296.972931	1324.938354	8301.458984	2625.787354	18.646101
297.347107	1326.938599	8538.541016	2690.806396	18.912132
297.721283	1328.874390	8714.519531	2743.178467	19.149364
298.095367	1331.175781	8806.853516	2780.817627	19.391443
298.469452	1331.648926	8820.446289	2806.390869	19.692640
298.843475	1328.057129	8795.217773	2817.489014	19.946428
299.217529	1329.046387	8756.138672	2826.049072	20.155973
299.591492	1328.444214	8698.583984	2833.146729	20.416201
299.965424	1325.196533	8618.014648	2832.695068	20.671001
300.339325	1323.841553	8485.374023	2815.811279	20.833107
300.713196	1320.120605	8301.758789	2787.894043	21.023338
301.087036	1318.830078	8080.785645	2754.190918	21.227007
301.460815	1318.313965	7865.405762	2720.208008	21.412470
301.834564	1318.830200	7684.758301	2693.452148	21.593426
302.208282	1315.969482	7537.729980	2674.417725	21.833824
302.582001	1314.270386	7416.811035	2654.049072	21.954441
302.955658	1316.012573	7311.185547	2642.004639	22.117662
303.329254	1312.506714	7221.174805	2629.271729	22.285311
303.702820	1310.958130	7142.068359	2617.829590	22.412052
304.076416	1310.807495	7075.995117	2607.892822	22.498581
304.449921	1307.430786	7021.515137	2600.687744	22.632793
304.823395	1309.603027	6969.917480	2596.407959	22.733807
305.196838	1308.527588	6920.384277	2590.062744	22.836206
305.570251	1308.183594	6865.559570	2584.255615	22.961773
305.943604	1304.828369	6805.509766	2575.652588	23.103031
306.316986	1304.312256	6761.246582	2568.963867	23.175129
306.690277	1306.420044	6728.404297	2568.017334	23.268185
307.063507	1305.581177	6712.079590	2568.340088	23.356316
307.436768	1305.989746	6721.134277	2572.189697	23.382570
307.809937	1307.258789	6748.900391	2582.685791	23.438276
308.183136	1308.011597	6803.165527	2597.181885	23.460131
308.556244	1310.054810	6877.411133	2623.572266	23.593199
308.929321	1309.172974	6967.895508	2646.392334	23.631117
309.302399	1310.226929	7060.530762	2672.331055	23.687517
309.675446	1309.043945	7157.489258	2695.043457	23.698597
310.048401	1308.054565	7253.113770	2721.261719	23.771120
310.421356	1309.237427	7348.910645	2750.168701	23.857769
310.794281	1307.839355	7451.095215	2774.816650	23.879477
311.167145	1308.248047	7564.163574	2806.261719	23.945555
311.539978	1312.119507	7661.917480	2834.157715	23.969870
311.912781	1313.324097	7733.152832	2853.106445	23.984789
312.285553	1312.012207	7749.498047	2860.483398	24.053974
312.658295	1312.399292	7722.591797	2853.514648	24.041639
313.031006	1312.227295	7670.456055	2845.320313	24.111952
313.403656	1311.839966	7615.524902	2835.448242	24.170120
313.776276	1313.603638	7565.497070	2828.243164	24.226892
314.148865	1316.313599	7539.773438	2824.586670	24.235283
314.521454	1316.442627	7537.837402	2821.317627	24.188709
314.893982	1316.958862	7538.117188	2824.135010	24.226616
315.266449	1319.109619	7502.563965	2815.316650	24.196945
315.638885	1316.851440	7438.685547	2799.164307	24.213543
316.011322	1317.281494	7355.319824	2783.699951	24.286341
316.383667	1318.270752	7282.773438	2769.354004	24.328653
316.756042	1318.722534	7224.507813	2758.557129	24.380070
317.128326	1319.754883	7172.802734	2745.415771	24.357582
317.500610	1316.872803	7118.904297	2731.972900	24.389736
317.872833	1315.517700	7058.530762	2721.090088	24.474476
318.245087	1312.592651	6980.606445	2700.506592	24.486778
318.617218	1311.775391	6885.283203	2678.890869	24.528816
318.989319	1309.839722	6806.929199	2656.759277	24.502413
319.361420	1307.043823	6756.320801	2643.488770	24.525179
319.733490	1306.484497	6723.543457	2635.401855	24.532082
320.105530	1303.193726	6701.368652	2628.411865	24.549374
320.477509	1298.741699	6679.085938	2621.851807	24.591551
320.849457	1295.622925	6653.877930	2614.754150	24.618673
321.221375	1294.181763	6644.543945	2608.645752	24.567757
321.593231	1295.364746	6637.381348	2605.161377	24.518768
321.965088	1295.988525	6641.230957	2599.225098	24.381245
322.336884	1297.451050	6650.199707	2599.461914	24.324156
322.708618	1298.461914	6680.289551	2602.731201	24.234692
323.080414	1300.526733	6712.143555	2610.280518	24.202635
323.452118	1301.537598	6778.215820	2626.949463	24.201017
323.823761	1302.053833	6891.305176	2650.199707	24.120329
324.195343	1303.752930	7021.881348	2680.612061	24.078842
324.566925	1308.140503	7158.586426	2710.723145	23.973946
324.938507	1310.484863	7291.462891	2740.060059	23.902031
325.310059	1310.893677	7398.078125	2765.977051	23.904045
325.681519	1313.496216	7515.812988	2790.711182	23.817148
326.052948	1312.979980	7614.276855	2816.607178	23.862186
326.424408	1312.786377	7704.826172	2837.792725	23.857897
326.795776	1312.786255	7749.067383	2851.471924	23.906439
327.167084	1309.667603	7759.735840	2853.063477	23.928364
327.538391	1308.957886	7717.257813	2838.373291	23.866165
327.909668	1310.183716	7621.181641	2817.123291	23.877991
328.280884	1310.743042	7526.180176	2790.001709	23.799753
328.652100	1311.216187	7433.007324	2768.257324	23.800896
329.023254	1311.689331	7353.792480	2749.846436	23.802261
329.394348	1310.377441	7294.752930	2736.597412	23.832394
329.765442	1308.334106	7218.937500	2718.896240	23.864943
330.136475	1307.710449	7146.906738	2698.484863	23.817907
330.507538	1307.065308	7068.682617	2679.471680	23.819813
330.878479	1305.237061	7011.600098	2662.286865	23.781343
331.249420	1306.183472	6968.970703	2653.425537	23.791147
331.620331	1307.000732	6957.249512	2653.296387	23.827192
331.991211	1306.032837	6973.101074	2653.447021	23.776213
332.362030	1306.054321	6997.232910	2655.963379	23.719322
332.732819	1303.387329	7032.440918	2661.749268	23.710058
333.103577	1303.451782	7069.478027	2669.879150	23.697903
333.474304	1304.312256	7093.954590	2676.353271	23.698198
333.845001	1305.193970	7117.806641	2679.902100	23.650434
334.215668	1306.075806	7138.390625	2685.364990	23.649086
334.586273	1307.280396	7167.339355	2692.828125	23.643921
334.956818	1307.753540	7190.611328	2699.538818	23.658319
335.327362	1309.108521	7225.347168	2707.002197	23.628080
335.697876	1309.818237	7243.090820	2709.281982	23.586710
336.068329	1310.441895	7256.706055	2714.099854	23.605711
336.438751	1310.312988	7261.888672	2720.057617	23.686914
336.809174	1313.345581	7257.523438	2719.584473	23.657417
337.179504	1315.646973	7261.846680	2719.734863	23.613197
337.549896	1316.485840	7286.837891	2725.692627	23.603413
337.920135	1315.797607	7324.413574	2737.608154	23.662861
338.290375	1315.668457	7372.655762	2748.319092	23.652859
338.660614	1316.980347	7418.403320	2753.717773	23.547581
339.030792	1318.636475	7470.968262	2761.374512	23.450262
339.400940	1318.249390	7504.671875	2768.515137	23.442720
339.771027	1317.582642	7537.944824	2777.613037	23.471790
340.141083	1319.088257	7578.401367	2787.399414	23.458025
340.511139	1319.712036	7612.470215	2794.174316	23.431097
340.881134	1318.528931	7659.206543	2805.573242	23.452450
341.251068	1318.141846	7686.134766	2812.584961	23.468039
341.621002	1319.733276	7708.438965	2813.595947	23.382870
341.990875	1323.131714	7728.937012	2814.348633	23.279148
342.360718	1325.304077	7735.474609	2816.736084	23.266651
342.730560	1324.400757	7744.852051	2821.059082	23.310797
343.100311	1326.293457	7763.907715	2829.017090	23.342865
343.470032	1328.272217	7813.010742	2838.910645	23.295288
343.839752	1330.057373	7885.707520	2851.364014	23.206038
344.209442	1330.982178	7960.534180	2868.677979	23.194567
344.579041	1331.993042	8052.932617	2890.895996	23.194717
344.948639	1334.509521	8144.105957	2915.544189	23.217743
345.318176	1334.853516	8244.891602	2933.675537	23.137672
345.687714	1334.552368	8335.805664	2959.033447	23.202719
346.057190	1333.756592	8412.267578	2981.745850	23.281582
346.426636	1331.971558	8482.621094	3001.812744	23.352301
346.796051	1332.552246	8530.927734	3015.427490	23.378542
347.165405	1330.508911	8543.187500	3019.578857	23.418068
347.534729	1331.261719	8527.056641	3011.835693	23.354946
347.904083	1331.498291	8478.491211	3003.640869	23.396448
348.273315	1331.261597	8410.589844	2988.069336	23.403460
348.642517	1330.874512	8338.624023	2968.324951	23.366282
349.011719	1329.304443	8267.605469	2948.193359	23.332642
349.380890	1329.691528	8203.016602	2939.052490	23.414591
349.749969	1329.261475	8157.311035	2924.964600	23.369823
350.119049	1329.390503	8122.855957	2915.006348	23.340309
350.488098	1330.616577	8108.423828	2909.156494	23.289833
350.857117	1329.541138	8104.294922	2906.919678	23.283186
351.226074	1331.283325	8127.136230	2912.898682	23.273243
351.595001	1330.100464	8150.601563	2924.297852	23.373611
351.963867	1329.304565	8194.585938	2935.094971	23.390017
352.332764	1331.240234	8246.764648	2946.494385	23.356930
352.701538	1330.745605	8309.115234	2960.366943	23.352465
353.070343	1332.810303	8385.533203	2975.788330	23.295656
353.439056	1333.756714	8478.707031	2995.124023	23.252329
353.807770	1335.348267	8577.084961	3020.180664	23.265585
354.176453	1337.864746	8670.364258	3041.710205	23.236898
354.545105	1340.381226	8772.077148	3063.992432	23.192703
354.913666	1344.833374	8899.576172	3095.630615	23.174810
355.282227	1346.661621	9039.055664	3128.301514	23.161058
355.650757	1349.651245	9191.590820	3164.865479	23.147516
356.019226	1352.554688	9350.427734	3204.719727	23.158220
356.387695	1353.350586	9525.352539	3249.090820	23.197990
356.756104	1359.179199	9727.140625	3300.409180	23.198364
357.124451	1362.641968	9968.611328	3366.503174	23.284548
357.492828	1364.685181	10213.868164	3427.929932	23.315653
357.861084	1369.115845	10435.530273	3484.238281	23.329208
358.229401	1372.191528	10625.790039	3533.943115	23.361198
358.597595	1372.944458	10758.193359	3570.764648	23.417816
358.965759	1374.062866	10865.517578	3598.725098	23.438578
359.333923	1377.073975	10958.734375	3621.846680	23.427805
359.702057	1379.246216	11091.374023	3651.398682	23.395000
360.070129	1382.429565	11249.199219	3685.617920	23.342882
360.438141	1384.451172	11443.826172	3733.386963	23.350714
360.806122	1385.612671	11654.196289	3785.866943	23.374737
361.174133	1389.699219	11906.572266	3843.121826	23.328442
361.542053	1394.022339	12192.563477	3915.195068	23.347347
361.909912	1397.442139	12476.599609	3985.483398	23.359550
362.277771	1399.184204	12736.912109	4048.566162	23.367838
362.645599	1402.862061	12921.149414	4093.732910	23.361727
363.013367	1404.152588	13021.571289	4121.887207	23.393618
363.381134	1404.346191	13047.337891	4128.791504	23.399872
363.748810	1400.732788	12986.578125	4120.424316	23.474258
364.116455	1398.990601	12855.375977	4092.807861	23.513676
364.484100	1396.818237	12650.535156	4045.641357	23.537319
364.851715	1394.904053	12370.671875	3978.428711	23.538443
365.219238	1388.322510	11973.160156	3882.588867	23.564522
365.586761	1382.493896	11498.027344	3768.208740	23.584667
365.954224	1378.321289	11039.109375	3655.097656	23.567190
366.321686	1372.342041	10633.854492	3553.881104	23.554890
366.689117	1367.481323	10359.626953	3488.905518	23.591970
367.056458	1363.287231	10173.711914	3439.350830	23.563717
367.423737	1361.437500	10042.621094	3408.680420	23.582533
367.791077	1363.050659	9931.187500	3381.278809	23.555042
368.158295	1360.985840	9845.670898	3359.964600	23.559845
368.525543	1359.157593	9765.295898	3336.413086	23.521566
368.892700	1357.910156	9695.201172	3317.743896	23.506842
369.259827	1353.995728	9637.989258	3305.183594	23.553711
369.626953	1353.866699	9598.737305	3294.107178	23.532696
369.994019	1351.758911	9565.443359	3287.181396	23.563389
370.361053	1352.275146	9548.214844	3288.256836	23.621229
370.728027	1352.189087	9533.718750	3279.459961	23.556364
371.094971	1351.780396	9534.988281	3283.460693	23.605415
371.461914	1352.769775	9558.130859	3287.138428	23.574448
371.828796	1351.737427	9594.414063	3295.182617	23.577841
372.195618	1350.339355	9626.719727	3303.269531	23.596428
372.562408	1351.974121	9658.831055	3309.893799	23.569920
372.929199	1351.586792	9693.179688	3318.497070	23.579554
373.295898	1355.501343	9733.291992	3329.595459	23.563421
373.662598	1356.060547	9780.587891	3339.317383	23.541462
374.029236	1356.576660	9817.689453	3344.521973	23.495079
374.395844	1356.877808	9856.899414	3349.081787	23.437635
374.762421	1355.823853	9897.225586	3358.523682	23.446970
375.128967	1357.114380	9936.629883	3368.116211	23.439573
375.495483	1354.533447	9986.249023	3382.677246	23.496416
375.861908	1355.931519	10070.731445	3401.238525	23.469351
376.228333	1357.974731	10203.887695	3430.704834	23.431498
376.594727	1358.942505	10389.137695	3478.259277	23.469225
376.961090	1361.545044	10614.305664	3533.061768	23.468851
377.327393	1363.480713	10855.839844	3588.939209	23.444735
377.693665	1365.072388	11066.941406	3640.816650	23.456760
378.059906	1364.427246	11233.047852	3684.692871	23.511549
378.426086	1365.932739	11330.974609	3714.589111	23.568954
378.792267	1369.825684	11394.444336	3732.161133	23.565338
379.158386	1371.030151	11416.447266	3737.495850	23.557667
379.524445	1369.976318	11407.844727	3736.742432	23.578375
379.890503	1369.309448	11373.172852	3727.752197	23.575321
380.256531	1369.072998	11302.153320	3711.642334	23.583513
380.622467	1364.900513	11182.784180	3685.403076	23.635464
380.988403	1360.878418	11019.000977	3648.839111	23.689497
381.354279	1356.146606	10836.203125	3607.264160	23.745825
381.720154	1352.726807	10673.344727	3569.152100	23.779810
382.085968	1351.909424	10543.047852	3537.771729	23.782280
382.451752	1349.995239	10486.180664	3520.758789	23.760065
382.817474	1345.026855	10469.597656	3518.586670	23.820955
383.183197	1343.693359	10503.063477	3524.307861	23.807472
383.548859	1345.500000	10561.652344	3535.427490	23.761841
383.914490	1344.467651	10627.725586	3552.375732	23.783764
384.280060	1345.672119	10690.206055	3568.894287	23.791685
384.645599	1349.844727	10754.623047	3579.239014	23.704910
385.011108	1351.522339	10825.126953	3596.165771	23.693659
385.376617	1353.823730	10908.878906	3611.587402	23.628998
385.742035	1354.684082	11003.621094	3633.568848	23.617987
386.107452	1356.727417	11107.333984	3657.700684	23.598257
386.472778	1357.028442	11198.656250	3680.305420	23.606632
386.838135	1359.932007	11293.549805	3703.727539	23.594580
387.203430	1361.437622	11367.687500	3721.751465	23.588396
387.568634	1361.286987	11435.739258	3737.774902	23.589251
387.933838	1362.233276	11474.819336	3746.055664	23.572826
388.299042	1361.329956	11511.188477	3754.078125	23.574202
388.664124	1358.791992	11539.451172	3766.101318	23.645908
389.029236	1358.705933	11556.485352	3770.553711	23.650715
389.394318	1358.598511	11564.163086	3775.844482	23.685570
389.759308	1359.050049	11561.776367	3776.812256	23.697216
390.124298	1359.931885	11585.113281	3777.177490	23.640123
390.489227	1360.405151	11632.730469	3788.211182	23.634436
390.854126	1363.179688	11712.761719	3803.524902	23.579166
391.218964	1363.287231	11838.283203	3832.883545	23.576107
391.583771	1363.588379	11981.677734	3864.241943	23.550880
391.948578	1364.190552	12133.137695	3901.343506	23.559896
392.313354	1365.201538	12250.250000	3930.508545	23.567255
392.678040	1366.061890	12350.002930	3952.812256	23.550295
393.042694	1366.363037	12448.102539	3975.653809	23.545860
393.407349	1366.793091	12559.469727	4003.463867	23.557108
393.771942	1366.276855	12693.099609	4036.306396	23.572626
394.136505	1365.739136	12809.715820	4070.956055	23.638783
394.501007	1365.158325	12885.081055	4085.904541	23.617746
394.865479	1362.362427	12878.089844	4088.162354	23.670235
395.229919	1360.469604	12786.056641	4068.869629	23.704689
395.594360	1360.104004	12648.211914	4040.823242	23.748173
395.958710	1358.168213	12487.438477	4006.883545	23.799541
396.323029	1359.523315	12344.819336	3976.965576	23.826780
396.687286	1358.146729	12222.093750	3948.037598	23.839317
397.051544	1360.039551	12111.457031	3923.281494	23.840967
397.415771	1359.179199	11980.452148	3888.202393	23.810923
397.779938	1358.318726	11827.401367	3850.584473	23.805960
398.144043	1355.673340	11671.833984	3809.891357	23.790033
398.508148	1356.469116	11518.610352	3773.822754	23.787836
398.872192	1356.189575	11394.616211	3741.581787	23.762609
399.236237	1355.350830	11314.026367	3717.772461	23.722246
399.600189	1356.189575	11257.115234	3703.534180	23.708336
399.964111	1356.856323	11216.551758	3690.436035	23.667868
400.328003	1354.425903	11190.957031	3679.402344	23.636143
400.691925	1356.275635	11172.675781	3674.090088	23.611654
401.055695	1353.866699	11166.674805	3665.874023	23.561117
401.419495	1353.544067	11164.954102	3670.325928	23.613136
401.783234	1353.888184	11182.396484	3671.573242	23.581251
402.146942	1355.823853	11181.772461	3673.616455	23.588486
402.510620	1354.533325	11216.336914	3684.026367	23.621370
402.874237	1354.339844	11263.202148	3695.683838	23.628788
403.237823	1355.866943	11339.016602	3715.858398	23.639750
403.601379	1355.888428	11444.148438	3744.206055	23.674229
403.964874	1355.372192	11595.048828	3782.017090	23.698454
404.328369	1356.146484	11759.886719	3820.989746	23.691895
404.691772	1357.630615	11933.800781	3864.650879	23.704426
405.055176	1357.501465	12084.485352	3907.774902	23.774374
405.418549	1358.426392	12229.471680	3942.553223	23.770733
405.781860	1359.200684	12337.485352	3973.976318	23.817705
406.145142	1360.426636	12448.811523	4003.442383	23.835894
406.508362	1362.254761	12518.819336	4019.573486	23.818434
406.871552	1361.136353	12561.362305	4031.080322	23.838305
407.234741	1361.867554	12562.030273	4035.446289	23.870890
407.597870	1360.792236	12520.647461	4026.068848	23.882717
407.960938	1362.340820	12456.339844	4009.486084	23.861055
408.323975	1362.663574	12370.886719	3993.419678	23.898100
408.686981	1360.727783	12293.264648	3974.965576	23.912453
409.049957	1361.416016	12241.559570	3959.823975	23.882111
409.412903	1363.007690	12215.985352	3952.382080	23.858656
409.775787	1364.405762	12229.450195	3955.307129	23.846209
410.138611	1363.459351	12273.197266	3964.813965	23.844334
410.501434	1364.298218	12328.452148	3978.535889	23.843496
410.864227	1366.771606	12373.488281	3993.225830	23.862286
411.226929	1367.717896	12423.409180	4007.786865	23.879726
411.589630	1369.524536	12473.394531	4017.379883	23.846239
411.952271	1370.793457	12497.547852	4027.144531	23.873549
412.314911	1371.116089	12522.303711	4032.026611	23.862127
412.677490	1370.599976	12536.693359	4038.113281	23.889404
413.040009	1373.675659	12560.458984	4045.899414	23.887329
413.402496	1372.557129	12553.318359	4043.813232	23.891539
413.764984	1368.427612	12534.865234	4040.113525	23.926037
414.127380	1367.889893	12502.602539	4035.983643	23.961945
414.489777	1366.900635	12490.407227	4038.650879	24.018957
414.852112	1367.459839	12512.194336	4044.135742	24.017403
415.214386	1366.276855	12548.994141	4052.545166	24.021606
415.576660	1366.018799	12629.650391	4077.752930	24.075130
415.938904	1364.233643	12746.977539	4104.143066	24.070728
416.301086	1366.900635	12896.694336	4145.051270	24.095406
416.663208	1370.793579	13069.619141	4187.787598	24.079290
417.025299	1371.159180	13253.083984	4240.267578	24.146832
417.387390	1373.374512	13469.753906	4303.006348	24.219082
417.749420	1380.472168	13732.582031	4366.992676	24.178223
418.111389	1384.580200	14027.824219	4435.689453	24.132330
418.473328	1387.720337	14356.853516	4521.076172	24.160105
418.835266	1391.333740	14718.684570	4612.270020	24.167866
419.197144	1397.441895	15121.508789	4712.067383	24.151920
419.558960	1401.292114	15548.528320	4816.145020	24.137951
419.920746	1408.045532	16017.491211	4939.257324	24.170746
420.282471	1412.325562	16561.236328	5078.220703	24.199066
420.644226	1418.304810	17156.554688	5225.959473	24.193636
421.005920	1422.219238	17755.876953	5375.182129	24.201332
421.367523	1427.273682	18320.054688	5514.059570	24.192499
421.729126	1429.531860	18822.029297	5647.151855	24.249651
422.090668	1432.177490	19260.212891	5766.499512	24.311834
422.452179	1434.156128	19616.773438	5856.381348	24.321169
422.813660	1435.876831	19942.878906	5941.595703	24.346022
423.175110	1438.242676	20241.583984	6023.262207	24.384068
423.536469	1438.930908	20520.156250	6099.314453	24.423923
423.897858	1439.425659	20782.404297	6172.376953	24.468575
424.259155	1439.124512	20923.882813	6209.779785	24.484037
424.620453	1437.791016	20975.201172	6236.557617	24.561937
424.981689	1438.092163	20959.500000	6239.870117	24.597498
425.342865	1438.715942	20913.107422	6234.879395	24.628056
425.704041	1441.017334	20834.367188	6221.630859	24.650787
426.065186	1441.318359	20749.023438	6204.145020	24.668011
426.426239	1441.447388	20644.773438	6185.776855	24.705770
426.787262	1439.941895	20466.019531	6149.041992	24.750767
427.148254	1437.102783	20225.689453	6094.260742	24.787167
427.509216	1434.994995	19907.519531	6024.058105	24.842640
427.870178	1432.973145	19504.158203	5923.120605	24.847000
428.231049	1430.155762	19086.945313	5824.420410	24.887112
428.591858	1426.585327	18670.699219	5718.794922	24.890867
428.952698	1421.509399	18269.832031	5617.535156	24.904711
429.313446	1416.842163	17885.699219	5526.491699	24.954065
429.674164	1412.239380	17541.742188	5439.986328	24.971304
430.034851	1408.862793	17206.625000	5362.041016	25.023661
430.395477	1408.174561	16918.267578	5288.870117	25.020454
430.756104	1406.539917	16688.412109	5231.422363	25.028887
431.116699	1404.991333	16488.386719	5183.459473	25.050514
431.477203	1406.174316	16316.538086	5140.142090	25.042768
431.837646	1405.937744	16210.290039	5119.343750	25.083204
432.198090	1405.442993	16155.550781	5108.632813	25.106190
432.558502	1405.980713	16141.225586	5114.956543	25.170778
432.918884	1408.196045	16152.410156	5127.129883	25.223005
433.279205	1407.335693	16212.224609	5145.733887	25.251106
433.639465	1406.496948	16264.639648	5172.382813	25.345602
433.999756	1405.593628	16348.177734	5200.665527	25.397694
434.359924	1404.410645	16430.123047	5235.014160	25.493656
434.720093	1404.518188	16499.076172	5263.426758	25.564901
435.080200	1403.464355	16569.537109	5287.687500	25.611267
435.440277	1401.679077	16644.814453	5316.250000	25.680876
435.800354	1398.495972	16696.929688	5337.026855	25.744667
436.160370	1396.302124	16723.988281	5355.416504	25.829823
436.520325	1393.333984	16741.214844	5363.245117	25.866184
436.880249	1391.785278	16744.398438	5366.621582	25.890291
437.240112	1393.635010	16742.140625	5376.257324	25.947948
437.599976	1393.355347	16763.734375	5386.301270	25.978188
437.959808	1397.248413	16810.578125	5403.874023	25.994549
438.319519	1396.538574	16871.531250	5423.252441	26.020781
438.679260	1397.011841	16968.898438	5451.406250	26.036631
439.038940	1398.001221	17101.580078	5492.314453	26.072485
439.398590	1401.313354	17284.636719	5543.632813	26.079676
439.758179	1403.593384	17510.082031	5613.877930	26.140303
440.117767	1407.679810	17808.658203	5702.211426	26.184607
440.477295	1412.691284	18135.470703	5800.675293	26.239561
440.836792	1416.992798	18487.625000	5908.731445	26.312668
441.196198	1416.627075	18806.761719	6002.098145	26.368233
441.555603	1421.165405	19081.398438	6080.968262	26.385851
441.914978	1420.154419	19270.431641	6145.384766	26.471468
442.274323	1422.004272	19408.857422	6197.562988	26.550272
442.633575	1425.854004	19502.654297	6239.697266	26.629951
442.992859	1430.349365	19538.033203	6269.421875	26.723862
443.352051	1429.618042	19510.417969	6276.110840	26.804636
443.711182	1431.231201	19432.322266	6265.464355	26.855223
444.070313	1430.263306	19310.414063	6244.472168	26.924879
444.429382	1427.660767	19152.394531	6215.178223	27.010378
444.788452	1426.649902	19016.162109	6194.272949	27.104919
445.147430	1428.886719	18932.904297	6188.615723	27.192209
445.506409	1427.617676	18915.289063	6202.703613	27.305441
445.865295	1427.380981	18997.214844	6236.665527	27.372396
446.224182	1430.048096	19166.203125	6300.242676	27.459133
446.583038	1428.607056	19404.511719	6377.413574	27.530224
446.941833	1427.725220	19672.609375	6459.703125	27.580214
447.300598	1428.564087	19946.794922	6555.973145	27.688440
447.659302	1429.467529	20195.962891	6645.188965	27.792730
448.018005	1432.112915	20390.330078	6715.047363	27.866199
448.376648	1434.435913	20546.457031	6776.731445	27.952539
448.735229	1433.812256	20616.380859	6808.843750	28.020393
449.093781	1430.155762	20626.341797	6825.190430	28.104723
449.452301	1426.327271	20563.126953	6826.953125	28.221157
449.810791	1426.456299	20426.488281	6804.219238	28.303968
450.169220	1422.499023	20185.425781	6753.438965	28.412092
450.527618	1420.004028	19889.474609	6684.763672	28.505201
450.885956	1415.831421	19574.554688	6614.497070	28.629026
451.244263	1413.293457	19276.238281	6542.466797	28.714041
451.602539	1410.927612	19023.753906	6484.395020	28.805527
451.960785	1408.432617	18834.052734	6443.228516	28.893064
452.318970	1408.174561	18676.830078	6416.751953	29.003862
452.677124	1405.507568	18535.242188	6394.189453	29.122936
453.035248	1404.324585	18393.332031	6370.229980	29.230108
453.393311	1406.131226	18235.076172	6342.248047	29.331112
453.751312	1404.216919	18067.550781	6308.781738	29.433275
454.109314	1406.432251	17921.660156	6278.283203	29.499144
454.467285	1404.862183	17778.740234	6259.463867	29.648453
454.825195	1404.432129	17644.810547	6235.374512	29.746489
455.183044	1402.474854	17489.566406	6203.929688	29.846632
455.540894	1400.797363	17304.662109	6166.828613	29.967754
455.898651	1399.248535	17107.042969	6132.910645	30.135752
456.256378	1395.871948	16915.341797	6086.732422	30.225649
456.614105	1394.301758	16754.355469	6060.256348	30.377203
456.971771	1392.602661	16626.273438	6038.640625	30.498480
457.329407	1389.247437	16578.355469	6039.887695	30.618256
457.686981	1388.881836	16595.927734	6066.751465	30.761198
458.044525	1384.881348	16716.048828	6122.069824	30.899071
458.402008	1386.731079	16913.148438	6196.122070	30.975538
458.759460	1390.258301	17222.691406	6318.008301	31.124401
459.116913	1395.850464	17682.341797	6486.501953	31.256895
459.474274	1400.883301	18285.017578	6699.303223	31.381058
459.831635	1406.840942	18900.771484	6919.760742	31.513330
460.188904	1411.508301	19491.898438	7134.131348	31.650991
460.546173	1418.562866	19993.939453	7315.293457	31.744877
460.903381	1425.251831	20382.978516	7470.387695	31.887451
461.260559	1430.177246	20662.236328	7587.133301	32.014027
461.617706	1433.424927	20856.863281	7678.628418	32.152927
461.974762	1433.037842	20902.890625	7726.850098	32.325935
462.331848	1433.016357	20853.939453	7745.023926	32.501068
462.688843	1426.671509	20652.968750	7708.287598	32.672001
463.045837	1421.208374	20278.253906	7622.256348	32.884514
463.402740	1416.068115	19744.960938	7478.733887	33.077099
463.759613	1410.131836	19186.871094	7318.842285	33.238441
464.116486	1404.905396	18641.621094	7169.942383	33.446262
464.473267	1399.055176	18194.984375	7050.056152	33.645061
464.830048	1397.205444	17837.132813	6959.723145	33.835415
465.186737	1396.474243	17553.250000	6891.541992	34.010918
465.543457	1391.742432	17325.523438	6843.965820	34.218014
465.900085	1392.796265	17206.626953	6827.103516	34.364265
466.256683	1391.161621	17162.019531	6844.848145	34.580788
466.613251	1393.592041	17192.710938	6887.929199	34.776222
466.969757	1393.721069	17282.013672	6944.946777	34.939095
467.326233	1393.893066	17380.392578	7013.385742	35.151489
467.682678	1394.430908	17445.085938	7075.758301	35.396233
468.039093	1393.979248	17487.242188	7126.754883	35.622208
468.395416	1392.366089	17481.046875	7163.770020	35.872448
468.751740	1390.365723	17475.798828	7202.526367	36.133068
469.108032	1387.333130	17453.904297	7233.648438	36.388073
469.464233	1386.924561	17425.257813	7266.276367	36.658123
469.820435	1387.462158	17371.595703	7287.289551	36.910522
470.176575	1388.903198	17264.826172	7286.580078	37.148560
470.532715	1390.709839	17116.185547	7271.998047	37.399746
470.888763	1389.871094	16959.392578	7259.566895	37.699913
471.244751	1389.957153	16821.849609	7245.736328	37.945957
471.600769	1388.838745	16735.945313	7248.360840	38.179977
471.956696	1391.419800	16686.154297	7273.610840	38.458927
472.312592	1395.119141	16715.039063	7328.693359	38.731106
472.668457	1394.172852	16788.876953	7397.174805	38.993942
473.024292	1395.613892	16909.494141	7485.443848	39.254074
473.380035	1399.872437	16996.687500	7564.012695	39.521786
473.735779	1402.711548	17086.396484	7643.937012	39.794384
474.091492	1400.130615	17172.923828	7724.526855	40.096870
474.447113	1398.689453	17280.419922	7816.926270	40.412704
474.802765	1400.238159	17379.853516	7911.109375	40.744854
475.158295	1401.227417	17497.501953	8015.637695	41.092800
475.513824	1401.205811	17608.527344	8124.554199	41.483406
475.869324	1400.495972	17745.513672	8236.913086	41.825695
476.224762	1399.420532	17873.398438	8348.238281	42.180569
476.580170	1401.743408	17999.607422	8462.704102	42.541386
476.935516	1402.668335	18130.783203	8583.750977	42.928223
477.290863	1401.721924	18340.294922	8732.953125	43.281284
477.646118	1399.807739	18551.289063	8891.574219	43.680000
478.001373	1403.163208	18806.695313	9078.715820	44.103420
478.356537	1404.561279	19087.570313	9263.771484	44.444981
478.711700	1408.927368	19371.455078	9449.020508	44.760368
479.066833	1412.863281	19646.175781	9641.625000	45.130371
479.421875	1416.003418	19939.740234	9842.766602	45.491707
479.776917	1418.713501	20251.736328	10051.223633	45.837090
480.131897	1422.756958	20583.023438	10284.756836	46.251968
480.486847	1425.187378	20960.789063	10543.972656	46.677780
480.841766	1427.617798	21395.488281	10838.848633	47.131866
481.196594	1431.403198	21904.089844	11177.321289	47.604488
481.551453	1438.608521	22567.785156	11586.446289	48.027607
481.906219	1446.028809	23387.111328	12079.196289	48.462368
482.260986	1455.320190	24480.345703	12731.534180	48.973732
482.615662	1465.364380	26038.882813	13624.096680	49.479008
482.970306	1480.312500	28242.232422	14876.122070	50.055489
483.324951	1502.057129	31073.486328	16583.195313	50.999020
483.679504	1528.103394	34178.042969	18581.441406	52.230843
484.034027	1552.192261	37240.316406	20572.505859	53.295921
484.388519	1577.485840	40007.261719	22323.648438	53.984600
484.742981	1599.682007	42335.035156	23742.814453	54.358517
485.097351	1615.727051	44198.640625	24888.632813	54.653156
485.451721	1625.018677	45581.304688	25782.617188	54.958233
485.806030	1633.750732	46583.941406	26457.773438	55.225624
486.160309	1640.482788	47246.304688	26963.726563	55.526344
486.514557	1645.494263	47545.160156	27303.919922	55.901119
486.868744	1646.569580	47432.246094	27427.957031	56.308849
487.222931	1643.171387	46820.234375	27193.800781	56.556641
487.577026	1636.890991	45926.082031	26698.986328	56.587387
487.931122	1628.933105	44990.953125	26159.111328	56.570652
488.285126	1619.964111	44104.308594	25707.011719	56.696289
488.639099	1612.952637	43301.371094	25385.724609	57.024883
488.993042	1607.553955	42603.714844	25129.669922	57.376385
489.346954	1604.542969	42024.195313	24922.226563	57.688976
489.700836	1601.617676	41487.574219	24762.507813	58.067783
490.054626	1597.423828	40928.410156	24579.863281	58.433422
490.408417	1590.670044	40378.378906	24389.474609	58.778427
490.762146	1584.217896	39816.289063	24194.632813	59.139915
491.115814	1583.056274	39386.949219	24096.017578	59.551964
491.469513	1578.711670	39061.570313	24061.798828	59.982319
491.823090	1576.281250	38661.800781	23972.087891	60.389626
492.176666	1572.173340	38210.628906	23850.224609	60.805099
492.530182	1567.678101	37734.078125	23707.625000	61.216900
492.883698	1562.967896	37229.519531	23542.916016	61.626221
493.237091	1558.687622	36680.738281	23350.398438	62.045670
493.590515	1550.321045	36093.078125	23101.742188	62.390564
493.943878	1543.266479	35411.636719	22792.349609	62.740200
494.297150	1537.846558	34507.351563	22341.369141	63.099293
494.650452	1529.049683	33330.281250	21717.291016	63.482578
495.003662	1512.875488	31807.943359	20843.871094	63.809052
495.356873	1500.314941	30131.712891	19855.705078	64.109306
495.710022	1487.066040	28584.187500	18955.658203	64.466599
496.063110	1476.828247	27306.437500	18233.033203	64.872078
496.416168	1468.074341	26367.935547	17724.132813	65.285736
496.769165	1463.084473	25714.408203	17382.218750	65.642334
497.122162	1457.449463	25311.005859	17204.734375	66.016510
497.475098	1456.632202	25029.080078	17107.949219	66.396660
497.828003	1456.223511	24893.019531	17100.830078	66.752327
498.180847	1454.029785	24823.205078	17143.929688	67.139297
498.533661	1454.416870	24769.218750	17183.205078	67.462669
498.886444	1453.621094	24713.750000	17232.220703	67.835388
499.239136	1451.964966	24632.236328	17262.226563	68.205681
499.591827	1449.900269	24482.648438	17240.480469	68.557083
499.944427	1449.039795	24238.423828	17149.005859	68.891571
500.297089	1446.007202	23928.687500	17009.527344	69.224487
500.649628	1444.630615	23578.921875	16846.841797	69.585289
501.002136	1440.371948	23203.154297	16657.441406	69.922440
501.354584	1437.532837	22852.552734	16493.505859	70.305672
501.707001	1434.156250	22491.947266	16313.031250	70.657341
502.059387	1432.005371	22181.478516	16158.022461	70.970566
502.411682	1429.747070	21899.015625	16023.833984	71.297546
502.764038	1429.531982	21673.394531	15919.500977	71.577095
503.116302	1429.575073	21490.425781	15848.180664	71.874344
503.468475	1428.370605	21362.968750	15815.746094	72.172890
503.820709	1427.445679	21297.326172	15833.575195	72.502350
504.172852	1427.768433	21260.976563	15851.964844	72.727493
504.524902	1425.101440	21239.255859	15893.538086	73.020714
504.876953	1428.177124	21248.654297	15946.985352	73.251564
505.228912	1427.918945	21261.386719	15995.615234	73.450066
505.580872	1427.553345	21280.679688	16058.913086	73.698006
505.932770	1426.391968	21267.861328	16095.047852	73.929283
506.284698	1425.209106	21266.160156	16135.438477	74.140747
506.636505	1425.660645	21272.806641	16181.381836	74.346809
506.988342	1423.789551	21269.794922	16218.782227	74.548965
507.340088	1424.671387	21276.398438	16263.583984	74.748726
507.691772	1424.456177	21279.777344	16299.352539	74.916428
508.043396	1423.681763	21298.380859	16354.346680	75.123978
508.395050	1425.337769	21345.074219	16418.701172	75.268883
508.746582	1426.262695	21429.212891	16520.669922	75.460907
509.098114	1426.929565	21563.166016	16644.062500	75.570892
509.449646	1429.446045	21709.593750	16771.238281	75.649307
509.801086	1431.080688	21892.970703	16934.851563	75.769005
510.152557	1433.403442	22072.626953	17103.796875	75.925308
510.503906	1433.640137	22255.166016	17273.257813	76.073280
510.855194	1437.210449	22443.490234	17433.580078	76.150414
511.206482	1438.801880	22627.857422	17594.353516	76.244797
511.557709	1440.243042	22821.171875	17767.404297	76.363197
511.908844	1445.340332	23011.128906	17938.179688	76.476868
512.260010	1446.136230	23173.730469	18083.486328	76.572441
512.611206	1446.588013	23288.087891	18195.673828	76.684685
512.962219	1449.663574	23368.722656	18283.277344	76.798981
513.313232	1450.394897	23425.783203	18345.886719	76.883698
513.664246	1450.932617	23455.679688	18386.126953	76.961555
514.015137	1450.760620	23457.228516	18397.634766	77.008606
514.366028	1453.728638	23439.097656	18400.064453	77.080063
514.716919	1452.115356	23387.007813	18376.406250	77.156937
515.067688	1450.416138	23307.533203	18338.292969	77.264885
515.418396	1449.555786	23222.382813	18280.673828	77.303322
515.769104	1448.136353	23144.609375	18231.464844	77.355103
516.119812	1450.093506	23090.453125	18213.441406	77.463348
516.470459	1450.050537	23097.982422	18230.970703	77.517426
516.821106	1450.824829	23162.376953	18293.255859	77.573593
517.171631	1453.126221	23358.894531	18460.587891	77.639191
517.522095	1457.212769	23642.285156	18685.710938	77.658066
517.872559	1461.062622	24070.144531	19039.025391	77.747353
518.222961	1464.977173	24575.886719	19435.527344	77.757866
518.573364	1469.493896	25124.449219	19888.271484	77.864349
518.923645	1476.312012	25645.048828	20288.449219	77.836655
519.273987	1481.818115	26105.107422	20655.849609	77.869499
519.624207	1483.925903	26452.355469	20928.529297	77.876755
519.974487	1483.646362	26733.636719	21144.750000	77.865784
520.324646	1484.850708	26895.742188	21272.333984	77.870087
520.674744	1483.000977	26977.429688	21338.064453	77.880005
521.024780	1481.710449	26911.783203	21291.693359	77.899826
521.374878	1480.419922	26728.537109	21159.267578	77.941841
521.724792	1477.086060	26432.779297	20915.796875	77.892891
522.074707	1472.505005	26056.068359	20628.275391	77.921051
522.424744	1468.870117	25661.351563	20303.742188	77.854240
522.774536	1464.095459	25332.281250	20050.529297	77.871162
523.124329	1462.159668	25042.888672	19829.037109	77.889351
523.474182	1458.589478	24903.343750	19718.873047	77.886436
523.823914	1461.815674	24869.898438	19685.210938	77.850868
524.173523	1463.321167	24982.623047	19767.416016	77.825844
524.523132	1467.084961	25229.251953	19976.949219	77.896355
524.872803	1469.020630	25632.398438	20293.525391	77.905106
525.222290	1474.118042	26245.767578	20767.583984	77.885269
525.571777	1480.118896	26965.470703	21338.277344	77.919891
525.921326	1488.958740	27765.914063	21968.570313	77.937538
526.270752	1495.389526	28603.373047	22631.492188	77.970032
526.620178	1505.949951	29496.150391	23327.083984	77.959908
526.969482	1513.800415	30569.894531	24158.929688	77.935905
527.318787	1527.286011	31845.470703	25165.718750	77.967834
527.668030	1539.803589	33489.312500	26482.292969	78.068459
528.017212	1559.289917	35522.765625	28163.812500	78.332748
528.366394	1579.442871	37770.765625	30064.863281	78.707870
528.715515	1603.768677	39934.906250	31938.966797	79.139832
529.064636	1620.781616	41741.433594	33476.988281	79.401016
529.413635	1635.256348	43115.664063	34620.847656	79.520897
529.762695	1642.827271	44061.628906	35399.378906	79.579224
530.111633	1649.752686	44697.285156	35901.222656	79.566628
530.460510	1649.731201	44978.562500	36137.445313	79.595299
530.809387	1647.408325	44862.527344	36052.230469	79.612930
531.158142	1642.504639	44333.128906	35635.210938	79.625694
531.506958	1635.901611	43292.691406	34792.675781	79.595123
531.855652	1623.814087	41803.566406	33549.921875	79.458199
532.204407	1609.554199	40108.777344	32082.105469	79.151077
532.552979	1591.637939	38622.894531	30735.763672	78.701416
532.901611	1580.238647	37507.550781	29751.468750	78.411736
533.250183	1573.549683	36804.671875	29144.148438	78.256378
533.598755	1566.581299	36351.496094	28742.185547	78.124680
533.947205	1563.010864	35978.953125	28449.220703	78.121384
534.295593	1561.505371	35663.878906	28200.351563	78.114342
534.643982	1561.634399	35411.527344	28012.849609	78.142677
534.992249	1567.914795	35183.628906	27833.062500	78.133545
535.340576	1561.526855	34984.875000	27686.095703	78.162636
535.688843	1556.752075	34779.281250	27529.261719	78.177406
536.037048	1552.041748	34511.781250	27298.867188	78.115990
536.385315	1550.880371	34046.386719	26943.251953	78.141174
536.733398	1545.288208	33382.691406	26412.369141	78.106499
537.081421	1536.878540	32527.445313	25735.898438	78.085114
537.429443	1531.695190	31672.181641	25073.255859	78.106110
537.777466	1528.555054	30902.644531	24465.398438	78.085289
538.125427	1524.640625	30244.908203	23947.656250	78.073837
538.473267	1519.865723	29722.843750	23528.355469	78.036049
538.821167	1509.907471	29287.111328	23195.712891	78.070511
539.169006	1508.853638	28941.242188	22938.691406	78.118744
539.516846	1508.401978	28654.732422	22712.662109	78.110962
539.864502	1509.240723	28495.763672	22594.066406	78.130943
540.212219	1507.928833	28504.111328	22589.591797	78.091270
540.559875	1511.520630	28838.193359	22869.929688	78.159569
540.907410	1519.500122	29597.880859	23468.046875	78.168846
541.254944	1530.125000	30617.769531	24285.611328	78.230766
541.602478	1536.168823	31697.882813	25147.654297	78.282974
541.949951	1542.857910	32720.099609	25959.582031	78.315857
542.297363	1549.718872	33602.207031	26662.742188	78.349686
542.644714	1555.117310	34395.015625	27294.199219	78.377472
542.992126	1562.107544	35014.703125	27765.695313	78.330513
543.339355	1564.710083	35429.875000	28097.179688	78.347382
543.686646	1564.580933	35497.582031	28169.748047	78.404999
544.033813	1562.494873	35207.761719	27948.945313	78.425453
544.380920	1554.149536	34458.527344	27347.216797	78.387947
544.728027	1542.900757	33316.277344	26442.031250	78.364761
545.075134	1530.189575	31969.875000	25380.437500	78.352478
545.422180	1519.500000	30666.382813	24336.931641	78.284294
545.769165	1509.111694	29513.033203	23418.900391	78.238289
546.116150	1500.379395	28531.037109	22643.537109	78.219177
546.463013	1491.259888	27665.556641	21946.201172	78.148964
546.809875	1481.581543	26966.525391	21403.597656	78.171707
547.156677	1477.903564	26331.867188	20886.091797	78.088905
547.503418	1472.526611	25801.994141	20460.470703	78.045044
547.850098	1467.601318	25317.220703	20081.949219	78.048828
548.196777	1466.676270	24898.181641	19754.445313	78.047775
548.543396	1465.321411	24474.513672	19433.890625	78.093002
548.890015	1459.385132	24032.888672	19088.537109	78.096657
549.236633	1453.341309	23521.126953	18703.478516	78.168861
549.583069	1448.588013	22973.126953	18279.361328	78.193420
549.929504	1444.006836	22375.375000	17807.517578	78.176979
550.275879	1438.049072	21767.470703	17337.912109	78.211098
550.622253	1435.747925	21120.251953	16835.957031	78.235191
550.968567	1428.047974	20528.802734	16394.181641	78.353630
551.314819	1424.520630	20002.304688	15983.915039	78.369926
551.661072	1421.982788	19598.126953	15671.618164	78.397461
552.007263	1416.218628	19304.757813	15443.956055	78.417458
552.353394	1411.852417	19120.906250	15291.443359	78.375671
552.699524	1410.153442	19001.708984	15188.957031	78.326241
553.045593	1407.249756	18950.607422	15145.597656	78.310822
553.391602	1407.701294	18928.796875	15122.753906	78.277367
553.737549	1407.895020	18905.654297	15108.903320	78.301498
554.083435	1408.690796	18871.564453	15082.083984	78.299797
554.429321	1405.744263	18837.603516	15040.959961	78.220085
554.775146	1404.711792	18766.435547	14971.468750	78.141762
555.120972	1401.593018	18699.888672	14900.836914	78.038002
555.466675	1400.001465	18572.431641	14794.994141	78.002892
555.812439	1400.861816	18412.195313	14669.409180	77.998276
556.158081	1400.431641	18199.246094	14501.625000	77.988800
556.503662	1400.495972	17978.443359	14327.322266	77.976036
556.849182	1400.818848	17754.201172	14141.514648	77.908623
557.194702	1397.764648	17537.119141	13977.344727	77.943512
557.540161	1393.140381	17350.515625	13825.734375	77.911270
557.885620	1390.774414	17176.365234	13689.287109	77.909737
558.231018	1387.849243	17019.054688	13572.650391	77.951767
558.576355	1386.472778	16895.041016	13470.530273	77.918587
558.921692	1386.365356	16771.951172	13383.766602	77.978188
559.266968	1382.923950	16670.603516	13310.250977	78.019211
559.612183	1381.353882	16585.216797	13245.167969	78.031578
559.957336	1378.815918	16526.220703	13197.119141	78.021965
560.302429	1376.493164	16485.611328	13155.672852	77.960739
560.647522	1377.073975	16465.630859	13138.853516	77.951653
560.992554	1376.149170	16452.361328	13117.065430	77.877098
561.337524	1375.396362	16454.466797	13111.881836	77.832954
561.682434	1376.772827	16478.041016	13116.678711	77.741196
562.027344	1379.590332	16486.343750	13109.194336	77.644768
562.372253	1380.256958	16492.281250	13122.056641	77.698387
562.717102	1381.052856	16496.431641	13122.981445	77.681999
563.061829	1383.289551	16506.345703	13121.087891	77.615257
563.406494	1382.923950	16506.863281	13106.784180	77.518562
563.751160	1383.010132	16487.873047	13097.150391	77.552116
564.095825	1383.805908	16480.019531	13093.579102	77.567619
564.440369	1381.052856	16470.945313	13079.834961	77.527275
564.784973	1381.547485	16486.128906	13093.730469	77.540596
565.129456	1383.504761	16545.621094	13138.402344	77.528076
565.473877	1381.934692	16631.501953	13214.605469	77.593483
565.818298	1379.418335	16780.574219	13326.144531	77.570320
566.162659	1381.225098	16958.230469	13457.819336	77.528336
566.507019	1383.117676	17142.789063	13596.782227	77.499481
566.851196	1382.623047	17304.982422	13715.700195	77.457596
567.195435	1384.924316	17465.066406	13835.113281	77.425865
567.539612	1386.128784	17583.642578	13918.155273	77.370064
567.883789	1387.870972	17669.867188	13971.409180	77.284981
568.227844	1390.107666	17720.433594	14006.014648	77.254471
568.571960	1392.796143	17746.607422	14016.984375	77.194168
568.915955	1391.957397	17702.988281	13989.667969	77.234299
569.259888	1392.301514	17641.583984	13940.738281	77.224556
569.603821	1394.624390	17538.859375	13863.265625	77.232780
569.947632	1393.140259	17414.093750	13758.434570	77.182014
570.291504	1390.537842	17301.820313	13662.831055	77.129501
570.635193	1388.817261	17230.070313	13614.847656	77.178429
570.979004	1387.720337	17189.140625	13594.653320	77.252121
571.322632	1388.387207	17251.921875	13639.733398	77.229607
571.666321	1386.881348	17348.537109	13731.765625	77.340874
572.009949	1388.752686	17484.488281	13845.565430	77.392006
572.353455	1388.688110	17614.806641	13951.212891	77.421623
572.696960	1392.903809	17731.423828	14042.772461	77.423592
573.040405	1395.269653	17836.578125	14118.458984	77.385506
573.383850	1396.302246	17900.994141	14180.122070	77.455673
573.727173	1397.678589	17957.580078	14234.150391	77.515381
574.070557	1398.667969	17983.669922	14272.412109	77.622810
574.413879	1400.474731	18000.898438	14299.405273	77.702415
574.757019	1398.560425	18007.070313	14303.491211	77.700714
575.100281	1398.409912	17948.935547	14265.315430	77.743187
575.443420	1397.850586	17855.351563	14189.974609	77.728233
575.786499	1394.968628	17718.580078	14092.305664	77.785095
576.129517	1395.011597	17557.830078	13980.549805	77.867226
576.472534	1395.269653	17409.726563	13867.265625	77.879608
576.815491	1393.376953	17219.445313	13744.627930	78.043709
577.158447	1392.839355	17037.873047	13609.234375	78.084808
577.501343	1389.634644	16846.281250	13475.347656	78.191040
577.844116	1385.655518	16634.621094	13325.093750	78.296707
578.187012	1383.182129	16399.818359	13147.028320	78.338753
578.529724	1380.321533	16122.384766	12953.389648	78.503723
578.872375	1377.310425	15831.832031	12754.139648	78.707756
579.215027	1374.062622	15551.066406	12556.887695	78.880035
579.557617	1371.159058	15267.546875	12357.574219	79.059502
579.900146	1368.104980	15013.774414	12173.549805	79.185890
580.242676	1364.362549	14763.677734	11998.066406	79.360054
580.585144	1363.910889	14546.577148	11838.907227	79.460381
580.927612	1360.620117	14349.434570	11700.717773	79.607712
581.269958	1358.254272	14169.499023	11571.605469	79.721771
581.612305	1359.136108	14031.352539	11470.625000	79.792587
581.954590	1358.017700	13892.000977	11378.204102	79.944153
582.296814	1359.329712	13789.235352	11307.702148	80.035782
582.639038	1358.168335	13691.159180	11246.016602	80.173973
582.981140	1360.641724	13596.156250	11193.107422	80.360054
583.323242	1364.212036	13520.319336	11147.251953	80.478394
583.665283	1361.824707	13440.610352	11108.128906	80.689445
584.007324	1359.243652	13378.174805	11074.920898	80.836449
584.349304	1357.071411	13312.359375	11036.787109	80.965981
584.691284	1355.264771	13251.771484	11009.944336	81.155586
585.033142	1354.447388	13186.343750	10991.039063	81.445877
585.374939	1354.253906	13123.582031	10966.691406	81.673630
585.716736	1352.533203	13080.458984	10956.969727	81.893738
586.058411	1353.329102	13023.613281	10935.871094	82.110611
586.400085	1354.124878	12978.125000	10915.179688	82.252708
586.741760	1351.285889	12935.324219	10893.649414	82.375099
587.083374	1348.253174	12922.503906	10905.114258	82.570023
587.424988	1348.167114	12903.749023	10911.437500	82.758881
587.766541	1346.360352	12895.706055	10931.719727	82.994827
588.107971	1346.166748	12910.008789	10970.821289	83.230598
588.449341	1346.747559	12925.581055	11010.955078	83.464424
588.790710	1346.941162	12962.487305	11058.014648	83.604103
589.132080	1345.693604	12993.931641	11105.417969	83.787132
589.473267	1348.984375	13041.616211	11159.511719	83.903503
589.814514	1347.392700	13090.913086	11220.938477	84.076538
590.155762	1346.424927	13151.329102	11295.915039	84.282684
590.496948	1348.704834	13191.547852	11353.342773	84.478348
590.838013	1348.102661	13204.711914	11384.271484	84.646194
591.179077	1349.005981	13229.359375	11420.663086	84.775734
591.520081	1350.704956	13229.360352	11436.536133	84.907181
591.861023	1352.339600	13208.475586	11428.018555	84.982819
592.201965	1351.930908	13188.343750	11420.339844	85.063011
592.542847	1353.264526	13146.706055	11397.519531	85.168144
592.883606	1353.716187	13099.450195	11381.302734	85.372154
593.224365	1352.468628	13047.250000	11356.202148	85.540154
593.565125	1352.511597	13016.602539	11349.427734	85.706772
593.905823	1353.823730	12999.008789	11347.813477	85.820793
594.246521	1353.350464	12995.803711	11366.762695	86.007751
594.587097	1354.942139	13030.777344	11408.746094	86.107796
594.927612	1354.017334	13055.768555	11445.353516	86.237831
595.268127	1354.985229	13121.110352	11514.308594	86.343834
595.608582	1350.597534	13227.984375	11624.257813	86.497650
595.948975	1350.877075	13347.805664	11756.338867	86.734383
596.289307	1352.597656	13530.000000	11934.208984	86.895470
596.629700	1353.845093	13753.403320	12139.912109	86.987511
596.969971	1355.157104	13974.957031	12348.906250	87.115082
597.310242	1355.028198	14161.775391	12521.358398	87.190994
597.650391	1355.286255	14280.758789	12637.824219	87.289169
597.990540	1353.350464	14364.662109	12717.253906	87.338646
598.330627	1354.425903	14370.918945	12741.837891	87.484489
598.670654	1356.727295	14358.681641	12737.793945	87.533508
599.010620	1355.845459	14279.640625	12676.860352	87.598221
599.350525	1358.834961	14147.237305	12572.353516	87.685059
599.690491	1358.985474	13981.238281	12420.528320	87.635254
600.030334	1356.426147	13756.113281	12228.118164	87.677147
600.370178	1354.576416	13481.950195	11988.043945	87.681534
600.710022	1352.210449	13190.322266	11739.648438	87.745735
601.049683	1351.221191	12926.418945	11513.105469	87.790161
601.389343	1349.005859	12712.930664	11335.857422	87.882065
601.728943	1349.220947	12547.619141	11198.549805	87.953018
602.068542	1346.145386	12447.219727	11116.344727	88.011299
602.408081	1343.714966	12407.515625	11090.987305	88.100578
602.747498	1347.392822	12457.952148	11133.745117	88.081543
603.087036	1349.758667	12558.715820	11231.327148	88.157784
603.426453	1349.027344	12710.046875	11374.355469	88.243210
603.765869	1350.661987	12902.652344	11543.085938	88.230888
604.105103	1350.833984	13132.744141	11768.253906	88.418770
604.444336	1352.103027	13408.628906	12021.038086	88.490967
604.783569	1354.791504	13683.350586	12275.799805	88.583008
605.122681	1358.039185	13923.790039	12496.839844	88.644135
605.461792	1360.362183	14122.050781	12679.765625	88.698318
605.800842	1361.910645	14273.315430	12810.599609	88.671143
606.139954	1362.641846	14346.141602	12879.725586	88.705544
606.478943	1359.931763	14330.636719	12885.984375	88.862190
606.817932	1356.813232	14249.227539	12816.427734	88.886490
607.156799	1358.340332	14120.008789	12706.909180	88.927002
607.495605	1357.071411	13942.028320	12560.375000	89.021393
607.834412	1356.512207	13730.906250	12362.391602	88.940750
608.173157	1356.963867	13487.928711	12149.613281	88.967773
608.511841	1357.523193	13275.150391	11957.074219	88.940109
608.850464	1356.813354	13123.109375	11819.722656	88.922707
609.189148	1357.222046	13038.905273	11739.647461	88.877823
609.527710	1357.178955	12987.802734	11704.870117	88.969360
609.866211	1356.619629	12966.853516	11698.375000	89.074478
610.204712	1356.576660	12970.832031	11704.977539	89.100845
610.543091	1358.921021	12985.652344	11724.012695	89.148804
610.881409	1359.200684	12981.887695	11725.733398	89.192223
611.219788	1358.555542	12962.636719	11707.192383	89.181007
611.558044	1359.222290	12924.590820	11676.413086	89.207626
611.896301	1357.071411	12848.300781	11608.707031	89.212700
612.234436	1355.092651	12720.778320	11492.541992	89.193466
612.572693	1350.468384	12538.434570	11337.125000	89.262482
612.910767	1346.295776	12311.265625	11137.789063	89.297951
613.248840	1345.951660	12067.795898	10918.493164	89.280739
613.586792	1344.962402	11823.615234	10696.422852	89.242973
613.924805	1343.112671	11590.983398	10488.891602	89.245651
614.262695	1339.284180	11367.793945	10288.823242	89.240967
614.600525	1335.563354	11181.536133	10123.211914	89.251198
614.938293	1333.627441	11017.816406	9986.183594	89.347244
615.276123	1329.906738	10869.152344	9853.866211	89.356735
615.613892	1329.584106	10751.783203	9753.530273	89.405312
615.951538	1328.035522	10640.694336	9672.123047	89.599411
616.289185	1328.014038	10566.943359	9600.694336	89.541550
616.626770	1327.411743	10496.353516	9542.278320	89.594490
616.964294	1326.013672	10445.938477	9496.552734	89.589981
617.301819	1323.604736	10407.267578	9463.946289	89.615189
617.639221	1323.153076	10378.189453	9443.621094	89.679024
617.976624	1321.325073	10362.853516	9434.501953	89.732361
618.313965	1324.164185	10346.486328	9422.542969	89.759361
618.651306	1327.497803	10337.819336	9406.563477	89.664566
618.988525	1329.605591	10326.570313	9398.648438	89.686279
619.325684	1329.433472	10320.224609	9382.022461	89.564857
619.662964	1331.111206	10312.611328	9371.182617	89.518135
620.000000	1331.605957	10289.296875	9356.342773	89.584877
620.337097	1329.842285	10270.563477	9338.641602	89.576660
620.674133	1327.670044	10244.667969	9319.198242	89.621284
621.011047	1330.035889	10211.373047	9289.194336	89.616669
621.347961	1329.648682	10182.379883	9258.696289	89.566116
621.684875	1331.390747	10146.871094	9223.745117	89.528351
622.021729	1329.863770	10114.371094	9190.428711	89.482132
622.358521	1329.132324	10068.881836	9157.219727	89.568779
622.695313	1327.325684	10045.352539	9137.303711	89.584236
623.031982	1326.551514	10015.541992	9116.590820	89.654137
623.368652	1324.529785	9991.561523	9089.641602	89.593674
623.705261	1323.712402	9977.149414	9077.274414	89.600945
624.041748	1326.443970	9965.019531	9071.919922	89.661499
624.378296	1330.057373	9964.589844	9069.984375	89.639214
624.714722	1329.777710	9987.903320	9084.480469	89.565605
625.051147	1331.756470	10010.014648	9107.988281	89.605911
625.387512	1333.520142	10059.138672	9151.521484	89.598251
625.723877	1334.358887	10114.349609	9208.324219	89.680801
626.060120	1332.380249	10206.467773	9294.055664	89.718239
626.396301	1335.004150	10316.202148	9393.938477	89.731171
626.732483	1338.079956	10427.527344	9504.188477	89.841637
627.068604	1340.488770	10542.659180	9608.544922	89.848991
627.404724	1345.156006	10649.726563	9693.415039	89.722130
627.740662	1346.575562	10744.706055	9774.329102	89.674789
628.076721	1345.392578	10811.510742	9835.132813	89.685555
628.412720	1344.360107	10847.579102	9868.814453	89.700706
628.748596	1344.058960	10864.636719	9880.107422	89.658936
629.084473	1344.790161	10857.860352	9871.439453	89.630890
629.420227	1344.058960	10822.523438	9837.391602	89.606628
629.755981	1344.381592	10759.699219	9770.113281	89.489616
630.091675	1345.285034	10655.600586	9678.488281	89.505058
630.427307	1343.714966	10541.219727	9569.658203	89.436684
630.762939	1340.768311	10419.979492	9458.956055	89.415123
631.098450	1338.208862	10297.727539	9358.040039	89.511856
631.434021	1338.208862	10185.499023	9255.231445	89.485283
631.769470	1335.197754	10085.313477	9156.875977	89.389435
632.104980	1333.240479	9990.163086	9079.102539	89.475929
632.440308	1331.627441	9907.851563	9007.631836	89.503304
632.775635	1330.315430	9827.433594	8941.860352	89.577957
633.110901	1330.401489	9767.102539	8888.541992	89.586441
633.446106	1330.788574	9724.925781	8850.408203	89.581810
633.781250	1328.100098	9693.135742	8825.524414	89.628128
634.116394	1329.304565	9672.036133	8802.595703	89.578468
634.451538	1330.186401	9660.164063	8789.777344	89.551155
634.786560	1329.261597	9636.849609	8766.290039	89.520912
635.121582	1326.723511	9609.641602	8747.256836	89.588394
635.456543	1329.820679	9574.928711	8729.146484	89.742004
635.791443	1334.122437	9539.719727	8695.077148	89.706505
636.126221	1333.455688	9498.402344	8656.234375	89.685570
636.461060	1330.294067	9459.751953	8613.217773	89.586830
636.795776	1328.336792	9411.875000	8569.900391	89.584084
637.130493	1327.261353	9340.318359	8507.915039	89.611916
637.465210	1329.089478	9269.083984	8429.667969	89.428001
637.799805	1327.562378	9190.750977	8360.368164	89.439613
638.134399	1325.196655	9101.235352	8281.112305	89.453201
638.468933	1324.400757	9013.999023	8207.533203	89.512253
638.803345	1324.099731	8930.870117	8128.233887	89.448395
639.137756	1322.357422	8856.818359	8062.568848	89.458443
639.472168	1320.937988	8790.487305	8000.603516	89.425285
639.806519	1319.582886	8721.060547	7933.262207	89.356201
640.140747	1319.797974	8648.619141	7872.631348	89.411835
640.474976	1320.142090	8578.417969	7812.516113	89.447884
640.809204	1321.066895	8510.150391	7756.832520	89.521362
641.143372	1321.023926	8444.959961	7707.535645	89.648636
641.477478	1320.658325	8379.188477	7652.625488	89.706596
641.811462	1321.798340	8318.385742	7606.125000	89.819885
642.145447	1322.206909	8273.305664	7565.432617	89.816383
642.479370	1321.647583	8229.859375	7523.254883	89.771530
642.813293	1321.346558	8179.572266	7478.389160	89.776024
643.147095	1318.873169	8133.115234	7439.416016	89.819862
643.480957	1319.862427	8095.455078	7415.004883	89.957336
643.814758	1322.593872	8059.644043	7382.592285	89.950325
644.148438	1322.809082	8031.532715	7350.244141	89.844734
644.482117	1322.593872	8010.153320	7318.390625	89.655975
644.815735	1320.400146	7981.741699	7291.742188	89.641724
645.149292	1319.002075	7963.890625	7269.890137	89.555878
645.482788	1318.636475	7946.726563	7252.425293	89.524872
645.816223	1318.098755	7929.542480	7228.981445	89.403809
646.149658	1321.884277	7921.261230	7228.508301	89.502754
646.483032	1322.830566	7925.670410	7226.379883	89.409248
646.816345	1325.002930	7925.347168	7224.831055	89.386673
647.149658	1325.712769	7925.153320	7225.992188	89.405754
647.482849	1323.067261	7931.089355	7231.326172	89.410400
647.816101	1323.690918	7933.498535	7237.456055	89.469551
648.149231	1325.583618	7934.251465	7245.843750	89.583260
648.482239	1325.562134	7940.402832	7243.951660	89.471382
648.815247	1325.282715	7940.918457	7247.177734	89.513618
649.148254	1326.250366	7943.090820	7248.360840	89.500580
649.481201	1326.723511	7939.155762	7248.210449	89.550812
649.814087	1323.475830	7926.875000	7239.671387	89.593178
650.146973	1323.949097	7914.399902	7231.884766	89.643875
650.479736	1322.873657	7914.377930	7230.573242	89.625969
650.812500	1323.820068	7909.216797	7219.862305	89.532074
651.145203	1324.185547	7898.226074	7208.593262	89.509758
651.477844	1325.045898	7892.375488	7202.354980	89.493134
651.810486	1322.529419	7888.052734	7194.160645	89.431274
652.143005	1322.421875	7879.083984	7191.751465	89.517036
652.475525	1322.830566	7875.061035	7187.169922	89.501419
652.807922	1321.389526	7863.532715	7176.287109	89.495102
653.140381	1321.131348	7854.090820	7166.780762	89.479347
653.472717	1322.206787	7835.443359	7152.972168	89.521790
653.805115	1322.744507	7811.312012	7134.582520	89.570435
654.137390	1323.303833	7778.468750	7105.332520	89.572128
654.469543	1322.292847	7743.497070	7079.693848	89.662323
654.801758	1323.992065	7706.976563	7050.013672	89.707588
655.133850	1322.938110	7666.024902	7014.783203	89.733047
655.465881	1323.798340	7628.988770	6986.607910	89.811874
655.797974	1326.874023	7598.726563	6957.787109	89.780701
656.129944	1328.723755	7561.474609	6929.546875	89.861176
656.461853	1331.111206	7537.429199	6908.468750	89.865807
656.793762	1330.465942	7519.620605	6896.681641	89.934990
657.125610	1329.476685	7518.437500	6887.283203	89.801933
657.457397	1330.100342	7528.761230	6894.467285	89.767242
657.789124	1327.884888	7549.730957	6911.265137	89.738319
658.120789	1325.863281	7595.220703	6946.387695	89.650726
658.452393	1325.712646	7671.316895	7013.987305	89.641174
658.783997	1325.906250	7765.521484	7097.373535	89.624413
659.115540	1325.024292	7877.062500	7198.741699	89.647179
659.447083	1322.099243	7988.430176	7303.765137	89.729507
659.778503	1323.475952	8102.724609	7402.895508	89.676895
660.109924	1322.895264	8201.403320	7491.638672	89.681412
660.441284	1327.067749	8284.660156	7558.614258	89.564697
660.772522	1329.347656	8343.678711	7604.340332	89.459602
661.103760	1328.401245	8376.391602	7630.923828	89.422974
661.434998	1329.067993	8385.361328	7638.623535	89.417419
661.766113	1332.659912	8352.733398	7615.781738	89.502228
662.097229	1332.573730	8281.864258	7547.967285	89.439255
662.428345	1334.746094	8188.197266	7461.871582	89.402046
662.759277	1336.638794	8055.599609	7342.522949	89.387100
663.090332	1339.757446	7920.400391	7218.615234	89.335617
663.421204	1336.617310	7777.931641	7089.975098	89.319626
663.752075	1336.230225	7635.720215	6963.013672	89.321243
664.082886	1333.584595	7499.488770	6850.031250	89.466957
664.413635	1332.401733	7379.345215	6751.223633	89.612579
664.744324	1331.347778	7271.783203	6656.373047	89.640320
665.075012	1333.627686	7177.986328	6576.061035	89.700752
665.405640	1333.477051	7108.106445	6507.343750	89.596512
665.736206	1333.971802	7047.948730	6454.456055	89.613319
666.066772	1332.638184	6992.845215	6406.857910	89.647247
666.397278	1331.175659	6956.948242	6368.143555	89.533798
666.727661	1328.895752	6917.653320	6333.537598	89.548370
667.058044	1331.648804	6889.562988	6308.007324	89.536438
667.388306	1331.068237	6871.109375	6287.897949	89.472794
667.718567	1330.874756	6853.817383	6273.508301	89.492767
668.048828	1331.842651	6843.343262	6262.732910	89.465477
668.378967	1334.186890	6841.342285	6265.185547	89.538033
668.709167	1333.907227	6841.601074	6266.884766	89.565208
669.039246	1334.165283	6841.170410	6263.831055	89.516281
669.369263	1335.434326	6843.127930	6268.519043	89.567169
669.699341	1336.638794	6839.643555	6267.723145	89.607124
670.029236	1335.993530	6832.223145	6266.754883	89.711708
670.359131	1335.735474	6828.630859	6263.356445	89.708992
670.688965	1335.993530	6818.565430	6251.936035	89.664894
671.018738	1338.402466	6799.423340	6239.375000	89.744621
671.348511	1339.563965	6785.142578	6220.812988	89.636925
671.678223	1340.617676	6766.085449	6203.757813	89.635406
672.007813	1339.284302	6734.426270	6174.141113	89.615005
672.337341	1339.714478	6704.465332	6144.008301	89.552971
672.666992	1340.596313	6671.987793	6117.876465	89.606628
672.996460	1339.822144	6636.758301	6088.044922	89.640930
673.325867	1340.768555	6604.001465	6057.416992	89.615044
673.655273	1343.693604	6570.578125	6026.574707	89.592194
673.984619	1346.166992	6531.841797	5994.097168	89.630188
674.314026	1346.769165	6501.708984	5970.245117	89.690201
674.643250	1347.457397	6475.360840	5944.521973	89.648033
674.972412	1348.102539	6445.852051	5918.776855	89.660629
675.301514	1346.123901	6418.300293	5890.407715	89.592384
675.630676	1348.425171	6399.007813	5866.017578	89.446953
675.959778	1348.726196	6375.133301	5842.638672	89.406059
676.288757	1346.769043	6355.583008	5821.302734	89.333199
676.617737	1347.994995	6330.139160	5794.266602	89.244141
676.946594	1345.564575	6317.104980	5781.318848	89.222939
677.275513	1346.769043	6303.340820	5769.575195	89.231155
677.604309	1348.296143	6301.619141	5764.692871	89.160271
677.933044	1348.339111	6297.081055	5760.391113	89.155014
678.261780	1347.371216	6302.092285	5767.789551	89.216293
678.590393	1346.725952	6318.115723	5783.490723	89.245964
678.919067	1347.736816	6339.990234	5808.568848	89.355080
679.247620	1350.597290	6369.906738	5836.508301	89.373070
679.576111	1354.576294	6414.687012	5881.911621	89.471069
679.904541	1357.888672	6464.951660	5932.520020	89.574600
680.232971	1360.211548	6527.389160	5993.753418	89.672585
680.561401	1367.094238	6579.482422	6039.974609	89.649506
680.889709	1368.986816	6631.660645	6088.388672	89.676880
681.217957	1370.320313	6676.612793	6129.082520	89.681488
681.546143	1373.030396	6715.370117	6166.656250	89.728958
681.874390	1376.299683	6754.256348	6197.391113	89.645409
682.202454	1380.837769	6781.851074	6223.437500	89.660950
682.530579	1384.322144	6789.357422	6231.245117	89.674217
682.858521	1385.376099	6781.614258	6220.963867	89.610352
683.186523	1385.913696	6746.879395	6188.723145	89.588516
683.514465	1386.193237	6701.539551	6145.341797	89.536003
683.842346	1388.881836	6645.490234	6083.721680	89.313095
684.170166	1386.279297	6579.826172	6020.960938	89.239235
684.497925	1386.472778	6514.226563	5960.093262	89.193451
684.825623	1385.655396	6446.218262	5893.633301	89.080566
685.153320	1384.773682	6370.703125	5831.604004	89.187584
685.481018	1383.354126	6294.414551	5768.220215	89.285522
685.808533	1384.106934	6218.426270	5697.243652	89.219109
686.136047	1385.784668	6154.891113	5636.828125	89.137108
686.463623	1386.774048	6099.916992	5589.553223	89.171478
686.791016	1387.526855	6063.267090	5554.667480	89.122589
687.118408	1389.634644	6037.909180	5531.954590	89.115219
687.445740	1388.042969	6019.132813	5523.910645	89.306572
687.772949	1389.613159	6015.045410	5522.405762	89.349327
688.100220	1391.161621	6012.099609	5519.221680	89.333809
688.427429	1396.474121	6003.087402	5520.318359	89.520088
688.754517	1399.270264	6008.249512	5510.617676	89.202995
689.081604	1402.259888	5999.280762	5497.283203	89.079941
689.408630	1401.657593	5991.171875	5487.174316	89.018501
689.735657	1402.023193	5971.492188	5470.290527	89.031517
690.062622	1401.377930	5948.737305	5450.847168	89.051003
690.389465	1403.141602	5917.722168	5425.940918	89.106827
690.716248	1404.238647	5876.018555	5386.947266	89.063164
691.043091	1406.045288	5826.141113	5346.920898	89.158150
691.369812	1407.744385	5769.511230	5300.807617	89.254280
691.696533	1407.658325	5708.041016	5252.070313	89.396973
692.023132	1403.399658	5655.582520	5203.332520	89.364288
692.349670	1401.700439	5592.693359	5153.391113	89.517937
692.676270	1403.227661	5541.073730	5107.987793	89.533539
693.002747	1403.378052	5492.959961	5064.605957	89.525726
693.329163	1403.313599	5450.717773	5020.579102	89.372482
693.655518	1405.593506	5407.400879	4982.552734	89.383591
693.981873	1404.389038	5364.772461	4946.677734	89.443077
694.308167	1406.260254	5326.423828	4915.210938	89.510315
694.634399	1406.195801	5301.151367	4879.980957	89.186775
694.960571	1406.604492	5276.309570	4853.977051	89.086182
695.286743	1409.400513	5256.242676	4831.694824	88.963730
695.612854	1414.239746	5242.563477	4815.413574	88.842377
695.938904	1418.713379	5237.853516	4809.606445	88.786819
696.264832	1420.197388	5241.918457	4816.424805	88.866440
696.590820	1425.208862	5250.500000	4824.834473	88.872337
696.916687	1428.047974	5274.652832	4853.892090	89.061501
697.242554	1430.822510	5313.324707	4890.240723	89.102798
697.568359	1435.919800	5373.332520	4940.139160	88.998016
697.894043	1442.802490	5455.772949	5010.233887	88.897522
698.219788	1451.663696	5556.581055	5105.729980	89.016808
698.545349	1459.578735	5674.015137	5211.355469	89.022026
698.870972	1470.827515	5799.234375	5330.811035	89.177925
699.196533	1477.903442	5917.076660	5444.265625	89.349121
699.521973	1484.678589	6021.197266	5540.965820	89.414101
699.847412	1493.948730	6108.326172	5615.985840	89.330299
700.172852	1502.121582	6172.678223	5669.304199	89.222397
700.498169	1510.208618	6207.930176	5697.737793	89.139580
700.823486	1514.832764	6215.135742	5702.146973	89.086060
701.148682	1517.456909	6188.142578	5676.229980	89.039886
701.473816	1518.682739	6122.328613	5616.932129	89.021820
701.799072	1518.897949	6019.906738	5524.984863	89.004204
702.124146	1515.607300	5893.568848	5414.691895	89.061646
702.449158	1510.832153	5747.744141	5279.277832	88.943214
702.774109	1510.466675	5599.274414	5137.604492	88.708939
703.099060	1508.014771	5460.439941	5008.062012	88.554420
703.424011	1501.906372	5323.562500	4887.810059	88.597809
703.748840	1494.937866	5198.386230	4781.581543	88.745499
704.073608	1492.292236	5088.071289	4683.182129	88.739876
704.398315	1489.216675	4990.511230	4597.709473	88.781242
704.723022	1488.506958	4912.694824	4524.668457	88.668076
705.047668	1487.194946	4849.225098	4465.370605	88.582657
705.372253	1486.958496	4791.949219	4411.944824	88.502106
705.696716	1489.560913	4742.028809	4363.637695	88.366028
706.021240	1486.377808	4705.701660	4326.256348	88.213509
706.345764	1486.076660	4678.321777	4301.005859	88.180237
706.670044	1489.023315	4652.834961	4281.971680	88.277962
706.994446	1493.626099	4636.037109	4261.086914	88.068069
707.318665	1498.056641	4628.853516	4252.634766	87.983292
707.642883	1500.013794	4621.927246	4245.364746	87.938087
707.967102	1503.326050	4619.539551	4240.310059	87.830437
708.291260	1507.907349	4620.271484	4237.041016	87.686836
708.615295	1511.757324	4613.496582	4234.158691	87.770157
708.939331	1514.875854	4623.369141	4241.622559	87.719238
709.263367	1517.671875	4634.337891	4249.559082	87.654152
709.587280	1525.285645	4649.156250	4262.851074	87.633766
709.911194	1529.910034	4660.512207	4276.057129	87.719452
710.234985	1534.168457	4682.300293	4289.434570	87.520668
710.558716	1538.620728	4706.905762	4311.609863	87.523346
710.882568	1546.449707	4732.435547	4334.709473	87.516388
711.206177	1551.869629	4761.234863	4364.648438	87.642838
711.529785	1558.451172	4791.948242	4396.136230	87.759010
711.853394	1566.322998	4811.542480	4421.623535	87.984818
712.176880	1571.054810	4837.051270	4442.077637	87.906487
712.500427	1575.356567	4848.170898	4458.315918	88.088081
712.823792	1581.636841	4854.945801	4468.640137	88.198311
713.147217	1587.981689	4857.269043	4468.876465	88.119965
713.470520	1594.068481	4847.482422	4459.562988	88.076546
713.793823	1596.627808	4831.975098	4450.831055	88.219376
714.117004	1599.639038	4813.134277	4431.581055	88.126534
714.440247	1599.165894	4789.754395	4404.933105	87.938858
714.763367	1603.875854	4761.858887	4371.143555	87.627693
715.086365	1608.371094	4733.424805	4342.645508	87.495277
715.409485	1608.629272	4712.583984	4313.781738	87.151802
715.732361	1610.801636	4689.419922	4295.091309	87.191376
716.055298	1614.780762	4668.600098	4276.250000	87.152153
716.378174	1617.232544	4652.146484	4259.710449	87.069290
716.700928	1617.490723	4631.476563	4237.083984	86.914581
717.023804	1617.533691	4612.958496	4221.684570	86.937614
717.346558	1623.104248	4589.815918	4197.552734	86.777847
717.669189	1625.040161	4560.134766	4175.312988	86.888947
717.991760	1629.470703	4523.679199	4148.686523	87.043343
718.314392	1629.169556	4482.189453	4116.746582	87.191017
718.636902	1627.621094	4440.808105	4073.257568	86.934731
718.959351	1629.341797	4385.704590	4037.231445	87.357498
719.281738	1630.244995	4331.891113	3990.537354	87.364983
719.604065	1629.642700	4277.132324	3935.562744	87.098351
719.926453	1629.685913	4219.189453	3884.417236	87.071960
720.248718	1630.782715	4167.097168	3842.454834	87.200233
720.570923	1631.535522	4116.423828	3797.438477	87.162987
720.893066	1628.094116	4070.225098	3759.691650	87.284332
721.215088	1627.599487	4024.885742	3721.343018	87.338081
721.537170	1624.631348	3983.074463	3687.962402	87.487000
721.859192	1624.695801	3953.220947	3659.206299	87.373352
722.181152	1625.448730	3915.560303	3633.568604	87.686554
722.503052	1625.964844	3889.772461	3606.597656	87.491219
722.824951	1626.739136	3870.092285	3586.100098	87.340729
723.146790	1625.857300	3852.434326	3572.464111	87.425980
723.468506	1624.373169	3838.518799	3559.602539	87.402992
723.790161	1624.953979	3823.914795	3548.289307	87.465645
724.111816	1626.889771	3815.247070	3539.191406	87.385254
724.433472	1631.427856	3805.503906	3526.243164	87.154961
724.755005	1636.890991	3800.771973	3519.726563	87.011978
725.076477	1641.708862	3796.147705	3513.123535	86.863205
725.397888	1646.956665	3793.975586	3512.693604	86.898949
725.719299	1652.613281	3796.771240	3514.156006	86.819290
726.040710	1656.097656	3798.341553	3516.995117	86.866737
726.361938	1660.291748	3797.567383	3521.489746	87.082733
726.683167	1668.808716	3805.762451	3527.469482	86.977119
727.004395	1676.659058	3811.676758	3534.588379	87.021736
727.325500	1686.273438	3822.968750	3546.611816	87.066154
727.646667	1695.306763	3836.905273	3562.506348	87.187187
727.967651	1702.640991	3852.821289	3579.906250	87.307350
728.288635	1711.201172	3870.888184	3598.596680	87.392082
728.609558	1721.976685	3887.062500	3612.189697	87.304298
728.930481	1729.267944	3898.289307	3622.168945	87.269814
729.251282	1736.430054	3910.721191	3631.095215	87.139450
729.572021	1742.646118	3921.582764	3635.116943	86.852959
729.892761	1749.743774	3928.292969	3639.268066	86.733147
730.213440	1756.110107	3928.594482	3644.472900	86.921814
730.534119	1766.390747	3936.121826	3646.903320	86.670311
730.854675	1771.036743	3941.284180	3647.936035	86.483192
731.175171	1775.725342	3945.972412	3649.097412	86.320679
731.495605	1783.597290	3952.231445	3656.323975	86.355118
731.816101	1788.436646	3954.468506	3655.786133	86.210625
732.136475	1790.307739	3957.630371	3659.335205	86.236694
732.456787	1797.340942	3961.308350	3666.991943	86.399223
732.777039	1803.900879	3962.813477	3672.583740	86.556671
733.097229	1807.621826	3969.911133	3681.574219	86.665199
733.417480	1813.644165	3973.847412	3685.015625	86.629417
733.737549	1815.558472	3973.825684	3682.370117	86.495857
734.057617	1816.268066	3964.921631	3676.541504	86.578568
734.377563	1818.461670	3945.822021	3663.034912	86.707138
734.697510	1819.666138	3920.313477	3643.591309	86.826813
735.017517	1818.268433	3893.535889	3613.996094	86.529930
735.337341	1818.719971	3861.488525	3584.336914	86.432549
735.657166	1820.462158	3826.151367	3555.107178	86.486229
735.976868	1816.547607	3791.652344	3516.457275	86.066811
736.296631	1813.084839	3753.604736	3482.259521	86.016884
736.616272	1813.213745	3716.202393	3449.265869	85.972771
736.935852	1811.278076	3682.929443	3417.090088	85.796532
737.255371	1811.815918	3650.839600	3387.172607	85.662666
737.574829	1811.643799	3622.341553	3364.159180	85.741280
737.894348	1811.407349	3606.791260	3349.382813	85.662766
738.213745	1814.203247	3598.833496	3340.370850	85.517303
738.533081	1817.063965	3588.465820	3337.832764	85.851143
738.852356	1821.601929	3593.047119	3337.424072	85.569801
739.171570	1827.516724	3600.704102	3338.693115	85.223732
739.490784	1835.560669	3604.403320	3344.715576	85.318779
739.809937	1843.583130	3611.028320	3348.135254	85.125816
740.129028	1851.089478	3604.791260	3347.339111	85.319504
740.447998	1855.305176	3598.725830	3344.414307	85.413071
740.767029	1858.983154	3595.972656	3344.693848	85.533661
741.085999	1862.682373	3588.423340	3340.349121	85.625061
741.404846	1864.101929	3573.109375	3325.293701	85.499435
741.723633	1863.327637	3551.988525	3305.097412	85.379471
742.042358	1861.714478	3528.221924	3281.976318	85.223854
742.361145	1858.617310	3494.196289	3254.941162	85.371841
742.679810	1856.509644	3461.418213	3227.345947	85.415230
742.998413	1852.638184	3425.457031	3199.815674	85.653694
743.316956	1846.250122	3390.420410	3170.048584	85.728790
743.635498	1841.324951	3362.674805	3139.851563	85.353584
743.953979	1838.141724	3338.628906	3115.353760	85.119820
744.272400	1836.464111	3308.108643	3090.791260	85.233025
744.590698	1833.302368	3283.417725	3063.885010	84.861015
744.909058	1829.388184	3260.339600	3044.441406	84.912262
745.227356	1827.409424	3239.820557	3026.095215	84.868050
745.545471	1826.742554	3222.097900	3007.856201	84.646080
745.863586	1825.409058	3203.257080	2991.316650	84.618011
746.181702	1820.806519	3183.792236	2977.916992	84.895271
746.499756	1820.118042	3175.942139	2965.421143	84.472839
746.817810	1822.569946	3166.972900	2958.258789	84.475334
747.135742	1823.430420	3161.961670	2951.333252	84.264214
747.453613	1824.548828	3153.874756	2945.010010	84.287918
747.771423	1827.086670	3149.702148	2938.858643	84.058594
748.089233	1829.581543	3145.250000	2935.804443	84.080673
748.406982	1837.389038	3144.432617	2938.148926	84.217537
748.724609	1841.045410	3145.271240	2941.396729	84.368156
749.042236	1846.572754	3143.980713	2942.106445	84.440186
749.359863	1850.121826	3147.078125	2950.408447	84.836060
749.677429	1858.208862	3152.046631	2951.010742	84.462051
749.994873	1863.779297	3154.154541	2956.021973	84.645355
750.312256	1868.812134	3155.143555	2957.011719	84.597137
750.629639	1872.103027	3156.003906	2963.163086	84.980087
750.946960	1880.189941	3156.842773	2965.120117	84.982399
751.264282	1882.168823	3154.025146	2966.840820	85.282585
751.581482	1887.266113	3152.132568	2968.604492	85.490318
751.898621	1888.406128	3150.110840	2966.604004	85.455643
752.215698	1892.427856	3147.938477	2961.893555	85.181732
752.532715	1894.256348	3147.615723	2960.431396	85.065392
752.849792	1898.020264	3148.476318	2957.807617	84.752068
753.166748	1901.031372	3146.454590	2963.206055	85.286247
753.483643	1904.773804	3142.066650	2960.388428	85.316475
753.800476	1906.128906	3139.851563	2959.829102	85.408188
754.117310	1911.591797	3139.421143	2958.474365	85.262871
754.434082	1912.387451	3135.506836	2960.431396	85.686150
754.750732	1916.517090	3139.636475	2960.130615	85.323929
755.067383	1920.689575	3141.378662	2959.915527	85.134369
755.383911	1923.765259	3137.077148	2957.269775	85.180450
755.700562	1925.507324	3139.120117	2956.839844	84.980362
756.016968	1927.314087	3137.313477	2955.958008	85.011940
756.333435	1931.400757	3130.818115	2954.989990	85.340538
756.649780	1933.981934	3129.010986	2949.397705	84.969963
756.966064	1936.562866	3129.484619	2950.064453	84.959602
757.282410	1940.885620	3129.742432	2951.828125	85.034843
757.598633	1945.940186	3132.732178	2956.538574	85.153793
757.914795	1951.403076	3138.883545	2965.335205	85.385162
758.230896	1957.575806	3146.303955	2972.239258	85.357063
758.546936	1962.092651	3158.283691	2980.799805	85.162582
758.862976	1970.932495	3168.198975	2993.682617	85.423767
759.178894	1979.664795	3177.253662	3005.340088	85.645027
759.494812	1988.332764	3188.308838	3018.911621	85.883286
759.810669	1994.247314	3199.622070	3027.665527	85.734184
760.126526	2002.269653	3208.569580	3036.720459	85.754028
760.442261	2008.829590	3214.806885	3044.484619	85.876823
760.757935	2013.389160	3224.119629	3052.636475	85.836388
761.073608	2015.905762	3225.711670	3056.206787	85.989082
761.389160	2018.207031	3227.905518	3053.625732	85.593124
761.704712	2024.917603	3230.164063	3058.335938	85.743324
762.020203	2029.025513	3229.217285	3066.401367	86.434174
762.335571	2033.348755	3242.917969	3073.284180	85.975685
762.650940	2045.221191	3264.253906	3093.587646	85.999863
762.966370	2069.826416	3312.926514	3136.861816	85.836647
763.281677	2110.368896	3394.571045	3217.387695	86.202843
763.596863	2154.266602	3499.401367	3319.292969	86.610382
763.911987	2199.627197	3606.425537	3414.229492	86.338051
764.227112	2239.911865	3690.006104	3491.830566	86.333611
764.542236	2273.378174	3756.508545	3554.590820	86.385704
764.857178	2297.596436	3808.837646	3603.285156	86.398430
765.172119	2311.985352	3837.636719	3631.525146	86.490257
765.487061	2324.567383	3858.413330	3647.053955	86.220299
765.801880	2333.579590	3864.199219	3650.775146	86.056358
766.116760	2329.127197	3845.895996	3635.095459	86.101997
766.431458	2312.781006	3798.449463	3589.347656	85.925407
766.746155	2276.217529	3709.492188	3505.079102	85.738037
767.060791	2232.878906	3593.026367	3393.495850	85.330231
767.375427	2185.518066	3471.462402	3287.160156	85.667946
767.689941	2143.964600	3367.729004	3189.277100	85.417786
768.004395	2109.250732	3278.169434	3106.599854	85.322365
768.318848	2084.258301	3200.246094	3036.978271	85.370110
768.633179	2062.449219	3138.819336	2981.939209	85.425079
768.947632	2041.629395	3083.199219	2927.050781	85.008354
769.261841	2020.831177	3027.923584	2883.497070	85.659058
769.576111	2006.678955	2983.724365	2845.470947	85.849846
769.890259	1989.106689	2941.031250	2806.498291	85.867264
770.204285	1975.750122	2907.843994	2773.913574	85.631233
770.518433	1961.920410	2873.883057	2745.028320	85.870613
770.832458	1952.607422	2845.836670	2716.379639	85.506851
771.146362	1943.423706	2820.134521	2692.699463	85.464417
771.460205	1933.056763	2796.303711	2665.986572	84.903839
771.774109	1919.915283	2772.106934	2643.639648	84.925072
772.087952	1911.527344	2752.814209	2622.991699	84.568581
772.401672	1906.257813	2728.961670	2607.849854	85.278809
772.715332	1899.999146	2712.916748	2586.277344	84.421616
773.028992	1892.600342	2696.527588	2569.393555	84.185875
773.342590	1889.029785	2679.643555	2557.585693	84.561630
773.656128	1883.308716	2663.641846	2541.841797	84.391273
773.969604	1882.491455	2651.618896	2529.001465	84.057594
774.283020	1878.211426	2633.035889	2516.741943	84.593246
774.596375	1872.275024	2618.776123	2502.245605	84.389771
774.909729	1869.930542	2604.322510	2493.814209	84.952408
775.223022	1867.220581	2592.988037	2481.275146	84.607620
775.536194	1863.198730	2577.394775	2471.360107	85.153282
775.849304	1855.670776	2568.318359	2462.563232	85.160248
776.162476	1850.422729	2556.790039	2457.035645	85.877831
776.475525	1848.530029	2546.122070	2448.195801	85.962242
776.788513	1845.002808	2538.701660	2442.818848	86.178032
777.101440	1843.153198	2527.668213	2436.753662	86.718399
777.414307	1839.561279	2518.742432	2430.516113	87.009895
777.727173	1836.227661	2514.161133	2424.300293	86.744888
778.039978	1838.034058	2506.654541	2420.170654	87.065323
778.352722	1836.076904	2499.858154	2412.578369	86.851120
778.665405	1835.302612	2495.126465	2410.470459	87.169907
778.977966	1834.872559	2493.212158	2406.448730	86.820869
779.290649	1836.442871	2491.233643	2402.835205	86.499741
779.603149	1840.034424	2487.964600	2400.211182	86.456345
779.915588	1839.238647	2485.254150	2397.587402	86.429619
780.227966	1840.120361	2478.371582	2391.995117	86.466698
780.540405	1838.744019	2478.543457	2388.489258	85.924622
780.852722	1835.496460	2476.543457	2383.198486	85.438667
781.164917	1834.592896	2467.983398	2378.875244	85.931564
781.477173	1832.033325	2461.509277	2373.907227	86.083336
781.789246	1829.624634	2456.046387	2369.691650	86.214600
782.101379	1827.323120	2448.131348	2360.464600	85.878609
782.413452	1823.838989	2439.441895	2350.635254	85.574036
782.725403	1822.591675	2429.354736	2342.225586	85.640335
783.037292	1816.784424	2421.999268	2332.224365	85.166443
783.349182	1815.794922	2409.911621	2322.158691	85.229683
783.661072	1809.579224	2401.222168	2314.480469	85.338844
783.972839	1804.868652	2387.263672	2307.619385	86.324699
784.284546	1804.739746	2378.101074	2296.220215	85.719154
784.596191	1801.664063	2370.938965	2286.175537	85.110283
784.907898	1797.104370	2363.884277	2278.389648	84.915726
785.219421	1795.104248	2357.883545	2272.388916	84.808495
785.530884	1795.211670	2350.872070	2267.894043	85.066772
785.842346	1793.276123	2343.709961	2259.183350	84.643639
786.153748	1790.522949	2338.892090	2251.676758	84.095505
786.465149	1789.232300	2331.643799	2244.858643	84.000130
786.776428	1784.156616	2330.697510	2241.826172	83.739304
787.087646	1785.490112	2327.385254	2238.814941	83.655449
787.398804	1789.339844	2330.976807	2236.448975	82.547752
787.709961	1790.759644	2338.977783	2245.246094	82.902481
788.021057	1800.373535	2356.098389	2259.226318	82.568336
788.332031	1810.288696	2372.960693	2273.786865	82.374489
788.643005	1817.429565	2386.016113	2286.691650	82.531342
788.953918	1820.397583	2399.824219	2298.263184	82.472153
789.264832	1826.333862	2412.987061	2309.942383	82.435165
789.575623	1831.344971	2423.225098	2320.459717	82.637466
789.886353	1835.711304	2428.795898	2328.955078	83.165840
790.197083	1839.690308	2433.312500	2332.805176	83.068810
790.507690	1840.830200	2432.882080	2330.847900	82.766006
790.818359	1839.883667	2430.000244	2328.266846	82.760460
791.128845	1834.033569	2417.439453	2318.696045	83.074661
791.439331	1825.021606	2397.372314	2300.908691	83.146065
791.749756	1813.493408	2376.122314	2279.422119	82.812790
792.060120	1803.513794	2354.442139	2260.258545	82.904564
792.370483	1794.286987	2334.676270	2241.159180	82.694496
792.680786	1784.500732	2314.157715	2227.308350	83.602715
792.990967	1776.564331	2292.499023	2210.833008	84.171249
793.301086	1769.896606	2278.476074	2194.659180	83.519409
793.611267	1764.067993	2265.033447	2181.130615	83.251770
793.921326	1759.529785	2255.290039	2172.914551	83.384010
794.231323	1754.927246	2244.105713	2166.182617	84.070618
794.541260	1753.980835	2236.771729	2161.579834	84.425575
794.851074	1751.786743	2231.502197	2155.492920	84.155342
795.161011	1751.528931	2228.921143	2157.020020	84.938774
795.470764	1754.389404	2235.287354	2158.676025	84.069107
795.780518	1759.572754	2239.739990	2163.386475	84.098557
796.090149	1766.197388	2247.396729	2169.774414	83.868988
796.399780	1772.499268	2258.581055	2175.387695	82.884903
796.709412	1774.069214	2264.280518	2181.496094	83.112503
797.018860	1780.285156	2268.474609	2187.152588	83.342117
797.328308	1782.737061	2277.400635	2190.679932	82.468750
797.637756	1785.447144	2283.745361	2191.540527	81.496056
797.947205	1786.630005	2284.154053	2191.540527	81.385117
798.256470	1786.974121	2284.003662	2191.217773	81.331917
798.565674	1787.748413	2281.400879	2189.002686	81.282745
798.874817	1783.619019	2271.808350	2184.464355	82.108582
799.183960	1780.306641	2263.377197	2177.925781	82.310776
799.493103	1774.843628	2252.300537	2167.386963	82.215446
799.802124	1768.068481	2240.364014	2158.245850	82.612968
800.111084	1765.423096	2231.007813	2151.363281	82.893654
800.419983	1757.594238	2220.597900	2141.727539	82.965500
800.728821	1752.002075	2205.671387	2133.016846	83.985130
801.037659	1750.432007	2192.680420	2123.918945	84.451843
801.346436	1747.657471	2185.152588	2114.068359	83.751991
801.655151	1742.603027	2176.721436	2110.175537	84.671028
801.963745	1741.591919	2167.816895	2102.454102	84.664719
802.272400	1741.463013	2161.794678	2095.829590	84.306419
802.580933	1737.268799	2153.707520	2087.806885	84.175194
802.889404	1734.343750	2144.631348	2080.752197	84.430641
803.197815	1729.095825	2138.264893	2072.235107	83.862473
803.506226	1725.095581	2133.769775	2063.438232	82.790314
803.814575	1721.826294	2127.876465	2058.211914	82.843361
804.122864	1719.697144	2125.983643	2054.060791	82.297501
804.431030	1715.395386	2124.499756	2052.404785	82.377365
804.739197	1712.749878	2121.488525	2051.738037	82.935188
805.047241	1713.330566	2120.800293	2048.060059	82.148308
805.355408	1710.276489	2122.757568	2046.705200	81.562218
805.663391	1708.082764	2125.682617	2047.565552	81.293800
805.971313	1711.201294	2130.242432	2050.856445	81.055321
806.279175	1714.319946	2137.211182	2051.093018	79.635857
806.587036	1716.363281	2140.802979	2053.996338	79.547943
806.894836	1720.126953	2140.845947	2057.007568	80.072594
807.202576	1724.278198	2142.029053	2061.309082	80.677483
807.510193	1724.471802	2142.308350	2061.244629	80.599182
807.817810	1725.396484	2135.447266	2057.910889	81.091034
808.125427	1725.224487	2131.231934	2053.695068	80.902603
808.432922	1721.933594	2127.898193	2049.651611	80.725761
808.740295	1718.040649	2119.531494	2045.156372	81.475266
809.047729	1717.632080	2107.551270	2037.112549	81.935043
809.355103	1711.997192	2094.883057	2026.294067	82.086311
809.662415	1704.103516	2085.247559	2018.916870	82.596947
809.969604	1702.103394	2072.256836	2010.894165	83.422371
810.276794	1697.048950	2061.631836	1999.129272	82.856422
810.583923	1689.972778	2053.394043	1988.160156	82.050064
810.890991	1685.821777	2045.887817	1979.729004	81.625923
811.197998	1681.670654	2042.532715	1973.534668	80.879662
811.505005	1678.207886	2036.574951	1967.297607	80.668610
811.811829	1677.541138	2028.573853	1958.780396	80.117676
812.118713	1675.046387	2022.917236	1952.736328	79.825584
812.425537	1671.669800	2017.002441	1947.187378	79.783241
812.732300	1667.927246	2014.357056	1942.132935	79.151878
813.038940	1665.281738	2007.947754	1935.164551	78.759727
813.345581	1662.550049	2005.667847	1930.260620	78.022934
813.652100	1659.560425	2000.721069	1929.206909	79.037979
813.958740	1655.753540	1994.419067	1924.733276	79.423416
814.265137	1654.699585	1989.364746	1920.775757	79.505188
814.571533	1651.064941	1985.213745	1914.989868	78.984253
814.877930	1647.687988	1978.890503	1910.150757	79.245407
815.184265	1642.418701	1974.631714	1912.495239	81.296196
815.490540	1640.332397	1971.986206	1910.387207	81.426720
815.796692	1638.417969	1970.760254	1905.741455	80.436195
816.102844	1639.880737	1969.448120	1907.139526	81.093826
816.408936	1640.934326	1967.319092	1911.140259	82.787544
816.714966	1639.321411	1963.705566	1912.000366	84.060501
817.020935	1640.224609	1964.114380	1913.463013	84.361542
817.326843	1644.332764	1969.319214	1918.194580	84.268684
817.632690	1644.784424	1974.051147	1923.335083	84.597267
817.938477	1646.569580	1978.933228	1927.529175	84.533791
818.244263	1651.344482	1986.310547	1934.067505	84.403481
818.549988	1655.624512	1993.666504	1937.982056	83.527359
818.855652	1664.614746	2002.420288	1947.209106	83.655930
819.161194	1673.196533	2017.282349	1963.878052	84.479370
819.466797	1682.531250	2035.585571	1980.568237	84.416748
819.772278	1697.113647	2064.341797	2003.409424	83.407486
820.077698	1716.857910	2098.711670	2035.499512	83.445976
820.383057	1736.817505	2138.243408	2069.546631	82.886810
820.688354	1759.551514	2182.098389	2108.842041	82.663139
820.993652	1794.373047	2239.266846	2161.407715	82.499390
821.298828	1849.239868	2335.816162	2253.612549	83.105713
821.604004	1957.984497	2530.765381	2432.709961	82.880814
821.909058	2141.426758	2852.417969	2729.886719	82.766136
822.214111	2372.982178	3276.234131	3118.752197	82.565002
822.519165	2622.045410	3728.139160	3536.911133	82.711411
822.824036	2852.590088	4134.684570	3915.000977	82.865257
823.128906	3047.818604	4480.727051	4230.803711	82.558319
823.433716	3204.956299	4764.031250	4489.760742	82.408127
823.738525	3333.811035	4996.641113	4703.937500	82.397263
824.043213	3437.909912	5184.965332	4877.421875	82.396469
824.347900	3516.478760	5324.487793	5004.706055	82.313042
824.652466	3560.140381	5400.970703	5075.424316	82.315239
824.957031	3532.158447	5357.825684	5039.248047	82.550072
825.261536	3423.585693	5163.371094	4864.150391	82.801285
825.565979	3249.542725	4848.858887	4576.179688	82.950264
825.870300	3048.249023	4486.792480	4239.449707	82.806030
826.174622	2863.623535	4162.429688	3935.627441	82.537636
826.478821	2716.530029	3907.107666	3705.663818	83.080162
826.783142	2622.389404	3735.882568	3548.311035	83.154678
827.087280	2566.619141	3632.514648	3452.621338	83.122803
827.391357	2532.292236	3564.441406	3393.280518	83.417038
827.695435	2504.052246	3512.069580	3346.952393	83.619606
827.999451	2473.704346	3458.062744	3296.515869	83.588615
828.303406	2449.722900	3408.035156	3247.370117	83.234581
828.607239	2422.622559	3363.277100	3202.633057	82.922096
828.911011	2400.340332	3317.550781	3161.961182	83.036652
829.214844	2377.778320	3273.803711	3124.451416	83.331688
829.518616	2349.990234	3221.087402	3078.531982	83.634956
829.822205	2310.307861	3143.981201	3003.017090	83.091202
830.125793	2246.235352	3029.880615	2898.100830	83.183746
830.429382	2162.999268	2886.852539	2762.406738	82.807869
830.732849	2077.978027	2735.048584	2615.184326	81.757782
831.036316	1998.312134	2597.225098	2486.394287	81.494675
831.339661	1931.916870	2478.156494	2379.671143	81.970299
831.642944	1874.963379	2376.767822	2288.133057	82.336792
831.946228	1826.355347	2293.552979	2210.403076	82.202415
832.249512	1789.210938	2229.093506	2147.857666	81.532379
832.552673	1762.218384	2179.517334	2101.894775	81.398811
832.855774	1744.603394	2150.331055	2071.482666	80.566177
833.158813	1744.388306	2141.878418	2073.482666	82.793091
833.461731	1761.465576	2169.150635	2098.410645	82.648376
833.764771	1792.566284	2216.683350	2145.749756	83.274994
834.067627	1828.678223	2274.453857	2203.713867	84.131035
834.370422	1863.521118	2330.224365	2256.236572	84.146713
834.673157	1895.202637	2384.897461	2301.661133	83.002411
834.975891	1919.463745	2426.300781	2338.009766	82.580002
835.278564	1941.595581	2461.617188	2367.927490	81.983498
835.581177	1955.188599	2485.383301	2389.693604	81.951973
835.883728	1963.296997	2501.449951	2400.834961	81.303642
836.186218	1962.845337	2501.858398	2400.663086	81.225815
836.488647	1949.682495	2482.694580	2373.089844	79.436729
836.791077	1918.388184	2430.537598	2326.116211	79.611145
837.093384	1879.953247	2358.593506	2260.989990	79.608170
837.395630	1831.882813	2283.444336	2190.314453	79.376038
837.697815	1787.984863	2209.714844	2119.897217	78.702576
838.000061	1746.109009	2140.351318	2056.190430	78.652496
838.302124	1713.395020	2077.698242	1998.290894	78.202950
838.604126	1681.778198	2021.906372	1946.262573	77.760208
838.906128	1653.387817	1971.297974	1901.031372	77.897339
839.208069	1629.255737	1927.894653	1861.693237	77.832291
839.510010	1614.049316	1895.783325	1833.345337	77.837967
839.811829	1602.564087	1873.436401	1816.095825	78.831139
840.113586	1595.337402	1860.596191	1806.352783	79.550758
840.415222	1589.250732	1854.724487	1801.341431	79.891403
840.716919	1588.153809	1848.680786	1794.953613	79.377502
841.018555	1584.669434	1844.207153	1794.244019	80.749184
841.320068	1587.228882	1840.270996	1789.920776	80.102043
841.621521	1584.884399	1839.905151	1787.038940	79.269836
841.922974	1584.669434	1837.496582	1786.049316	79.651207
842.224365	1581.486328	1836.507080	1782.091797	78.662407
842.525635	1580.367920	1829.796509	1777.940674	79.210144
842.826965	1575.205933	1815.300049	1766.605957	79.718750
843.128174	1562.042969	1796.114868	1749.141479	79.932068
843.429260	1550.062988	1774.564087	1727.095703	78.856056
843.730408	1537.050659	1751.808472	1703.329346	77.426140
844.031433	1523.134888	1728.859375	1682.272949	77.354942
844.332397	1514.166016	1708.362183	1663.410278	76.852318
844.633362	1501.132324	1689.413574	1648.591309	78.318466
844.934204	1490.485840	1670.378906	1636.267212	81.037796
845.235046	1481.495483	1652.462891	1621.233154	81.733513
845.535828	1475.924927	1636.116699	1609.167114	83.176674
845.836487	1466.848511	1625.061401	1597.187134	82.381798
846.137146	1458.696899	1616.716431	1587.831177	81.720451
846.437744	1452.437988	1608.263672	1578.819458	81.104393
846.738281	1447.577026	1599.789551	1566.731689	78.281776
847.038757	1441.984985	1591.508911	1557.569458	77.301659
847.339172	1438.350098	1582.497192	1553.117188	79.618042
847.639526	1433.231323	1576.689819	1547.761719	79.835213
847.939819	1429.703979	1571.979614	1542.771851	79.471001
848.240112	1428.284424	1570.302002	1539.222778	78.115929
848.540283	1425.251831	1569.205078	1535.673950	76.706932
848.840393	1424.499146	1570.624512	1533.308228	74.462830
849.140564	1420.412598	1567.936035	1530.082031	74.340347
849.440552	1419.036011	1564.043091	1526.898926	74.384583
849.740540	1419.294189	1560.580444	1525.092285	74.882088
850.040405	1416.863770	1562.344116	1524.446899	73.950287
850.340210	1417.358398	1559.139526	1524.554321	75.606621
850.640137	1417.380005	1556.988403	1520.016357	73.517319
850.939819	1416.024902	1553.869873	1516.252319	72.710243
851.239502	1417.530518	1549.202759	1515.736206	74.583443
851.539185	1414.885132	1545.438721	1511.477661	73.986885
851.838745	1414.863403	1543.890259	1510.531250	74.145683
852.138245	1411.314575	1536.190308	1507.627686	77.127167
852.437744	1412.045898	1532.598511	1504.465942	76.663658
852.737122	1410.927490	1528.555054	1502.723755	78.039757
853.036499	1408.970215	1525.651489	1499.282471	77.400810
853.335815	1410.669434	1518.682861	1498.228638	81.063255
853.635010	1409.443481	1517.478394	1497.088623	81.126686
853.934204	1408.518677	1517.736328	1496.292969	80.366394
854.233276	1407.077637	1515.478149	1496.637085	82.619026
854.532410	1403.206177	1514.230591	1494.357056	82.099854
854.831482	1400.990723	1513.628418	1497.131714	85.354187
855.130371	1398.237671	1508.208252	1495.303589	88.265350
855.429260	1398.581909	1509.326660	1494.056152	86.211075
855.728088	1397.248413	1509.455933	1490.593262	83.189476
856.026855	1395.957886	1508.681641	1486.334717	80.175499
856.325623	1396.495728	1506.917847	1485.044189	80.190872
856.624329	1393.054443	1508.487915	1482.334106	77.342957
856.922913	1392.538208	1505.713379	1481.581299	78.677231
857.221436	1389.935669	1502.487183	1478.720825	78.884018
857.519958	1390.796021	1502.250488	1475.107544	75.646606
857.818420	1394.280151	1502.659302	1469.644409	69.537598
858.116821	1395.871826	1501.046143	1464.977173	65.705536
858.415161	1396.108398	1502.444214	1461.793945	61.771801
858.713379	1397.656982	1498.357544	1460.245361	62.152958
859.011658	1397.592529	1495.496948	1462.632935	66.432556
859.309814	1397.162231	1494.722778	1463.815796	68.320206
859.607910	1396.087036	1493.776489	1460.804565	66.248222
859.905945	1396.065430	1491.152344	1460.310059	67.564110
860.203979	1394.774902	1491.647217	1458.825928	66.119019
860.501953	1395.377197	1493.131226	1458.481934	64.554611
860.799744	1395.162231	1489.001709	1458.051758	67.018196
861.097656	1392.258667	1487.668091	1460.030518	71.032661
861.395325	1388.752808	1486.291626	1457.492432	70.474121
861.693115	1386.924561	1484.721558	1457.750610	72.421501
861.990784	1384.214478	1486.678833	1455.965332	70.025185
862.288330	1384.515747	1485.603394	1453.104736	67.851013
862.585815	1382.988525	1484.850708	1451.362671	67.124168
862.883301	1381.461670	1483.237427	1452.674683	69.970505
863.180786	1379.676270	1482.119141	1452.029419	70.627800
863.478149	1379.052612	1479.710083	1452.416504	72.884697
863.775452	1380.816284	1477.000122	1455.169678	77.303421
864.072693	1380.063599	1478.957520	1456.761353	77.555580
864.369873	1378.385864	1477.236816	1457.062378	79.591049
864.667114	1382.278931	1478.011108	1459.234619	80.386436
864.964111	1385.526611	1479.495239	1459.105591	78.301643
865.261169	1385.741821	1477.559448	1460.223999	81.119690
865.558105	1386.085815	1478.484253	1461.751099	81.890221
865.855042	1386.623535	1479.710327	1462.804932	81.839104
866.151917	1386.558960	1479.387695	1462.417847	81.719185
866.448730	1387.311646	1479.215698	1460.116333	79.218147
866.745422	1388.300903	1479.581177	1457.320435	75.612755
867.042114	1384.881226	1478.871582	1452.889771	72.356941
867.338806	1383.504639	1476.828247	1448.265503	69.393867
867.635376	1384.429565	1473.279419	1446.867432	70.273460
867.931824	1381.697998	1470.418823	1442.953003	69.042419
868.228271	1377.482544	1468.289551	1439.404175	68.190369
868.524658	1376.987793	1467.644287	1436.995239	66.192108
868.821045	1375.654297	1464.762207	1436.199585	67.946030
869.117310	1372.944336	1463.235229	1434.758545	68.461174
869.413574	1373.718628	1464.590088	1435.339355	67.810867
869.709717	1373.309937	1463.858887	1435.274658	68.432289
870.005859	1372.535645	1463.321167	1434.564819	68.324966
870.301880	1374.751099	1464.073975	1434.650879	67.059845
870.597900	1373.482178	1465.471924	1437.425415	69.511269
870.893860	1372.944458	1469.988647	1436.307007	65.292473
871.189636	1372.858521	1471.795288	1436.823242	64.652122
871.485535	1375.181274	1473.128784	1438.909546	65.063698
871.781311	1373.159546	1473.838379	1439.124512	65.520195
872.077026	1372.944336	1476.053711	1439.124634	64.184563
872.372681	1373.116333	1476.914063	1439.318237	63.779724
872.668274	1372.557129	1475.623535	1437.963013	63.459946
872.963806	1373.180908	1475.322388	1441.232300	66.624641
873.259338	1372.987305	1476.806519	1445.125244	69.484192
873.554688	1371.202026	1477.107666	1447.964355	72.481812
873.850098	1372.965698	1475.989258	1447.985962	72.818550
874.145447	1374.170166	1474.548218	1449.663574	75.209076
874.440674	1374.815430	1472.956665	1450.954102	77.580711
874.735840	1375.740356	1470.762817	1451.943481	80.194855
875.031006	1375.310181	1471.816772	1452.567139	80.053558
875.326050	1376.858887	1473.322266	1453.405884	79.353424
875.621094	1378.493530	1472.999756	1456.029907	82.043671
875.916077	1378.041870	1472.397461	1457.707520	84.431297
876.210999	1377.955688	1474.505249	1456.029907	80.864395
876.505798	1377.288940	1473.386719	1452.223022	77.976913
876.800598	1377.891113	1472.096313	1452.050903	78.721542
877.095337	1378.450317	1474.225586	1452.459595	77.273895
877.390015	1380.256958	1476.441040	1450.588379	73.121681
877.684692	1383.956421	1477.709961	1454.051147	74.764885
877.979187	1384.063965	1475.107544	1454.739380	77.628113
878.273804	1385.999634	1474.612793	1454.416870	77.208893
878.568237	1385.462036	1472.074829	1456.503174	82.021530
878.862610	1389.720703	1475.301147	1458.546387	80.422211
879.156921	1391.548828	1481.366455	1461.342285	77.705750
879.451172	1393.570557	1484.979614	1466.934448	80.258888
879.745422	1397.377441	1492.400024	1474.376221	81.032082
880.039612	1404.453613	1503.562622	1483.474121	79.730904
880.333679	1414.175293	1517.392212	1497.002441	80.245712
880.627686	1426.692871	1541.588989	1518.231201	79.670517
880.921692	1448.071899	1581.056152	1548.557495	75.562027
881.215698	1485.151855	1648.505371	1603.854614	72.666176
881.509460	1540.857544	1743.699951	1693.285156	75.145828
881.803345	1615.834473	1867.951904	1803.083618	74.270607
882.097046	1697.027344	2007.667969	1931.895264	75.607597
882.390808	1781.962769	2147.577881	2061.588867	76.481003
882.684448	1864.316895	2284.390625	2183.109375	75.889648
882.978027	1938.240112	2405.029053	2296.564209	76.763618
883.271545	2002.420044	2512.375732	2391.479248	76.292747
883.565002	2054.275879	2604.021729	2472.607422	76.095444
883.858398	2095.011963	2674.782959	2538.529541	76.498749
884.151733	2119.531494	2717.541016	2581.352051	77.226288
884.445068	2122.865479	2726.273438	2591.826416	77.718719
884.738281	2102.690674	2690.333740	2556.897461	77.292969
885.031433	2051.652100	2612.775635	2488.587891	77.868019
885.324585	1987.816040	2503.751221	2389.780029	77.909782
885.617676	1917.505981	2386.231201	2282.949463	77.965401
885.910645	1845.475830	2264.646240	2174.355469	78.459648
886.203552	1777.919189	2154.202393	2069.826416	77.576469
886.496521	1716.234253	2049.866943	1977.535278	78.319969
886.789368	1661.582153	1953.898071	1890.686035	78.375435
887.082153	1610.737183	1865.629028	1814.633545	79.993286
887.374817	1567.570679	1788.802368	1744.345215	79.904709
887.667480	1530.146606	1719.998047	1683.885986	80.978783
887.960083	1495.884277	1663.797607	1633.901245	82.195358
888.252625	1474.569824	1620.888794	1594.348022	81.861015
888.545166	1457.858154	1588.239746	1566.559692	83.371841
888.837524	1442.092651	1563.978638	1543.309448	83.042191
889.129883	1430.650513	1542.836304	1524.640625	83.780762
889.422241	1421.100952	1526.576172	1508.703003	83.054626
889.714478	1416.218750	1510.144165	1504.939209	94.458412
890.006714	1430.177124	1493.819580	1517.241699	136.802658
890.298767	1380.493774	1503.756104	1483.646240	83.685310
890.590881	1384.515625	1464.009399	1443.189453	73.809334
890.882935	1380.020264	1486.011963	1442.006714	58.482365
>>>>>End Processed Spectral Data<<<<<
