Jaz Data File
++++++++++++++++++++++++++++++++++++
Date: Thu Dec 19 19:55:47 2019
User: jaz
Dark Spectrum Present: Yes
Reference Spectrum Present: Yes
Processed Spectrum Present: Yes
Spectrometers: JAZA2928
Integration Time (usec): 32200 (JAZA2928)
Spectra Averaged: 10 (JAZA2928)
Boxcar Smoothing: 5 (JAZA2928)
Correct for Electrical Dark: No (JAZA2928)
Strobe/Lamp Enabled: Yes (JAZA2928)
Correct for Detector Non-linearity: No (JAZA2928)
Correct for Stray Light: No (JAZA2928)
Number of Pixels in Processed Spectrum: 2048
>>>>>Begin Processed Spectral Data<<<<<
W	D	R	S	P
190.104553	0.000000	0.000000	0.000000	0.000000
190.488098	0.000000	0.000000	0.000000	0.000000
190.871613	1222.216064	1221.506226	1222.452515	-33.310406
191.255096	1238.540649	1233.335571	1243.745483	-99.995308
191.638535	0.000000	0.000000	0.000000	0.000000
192.021942	1036.773560	1030.450195	1026.858398	156.801987
192.405334	1155.648560	1147.669067	1143.496582	152.290115
192.788696	1274.652466	1262.909058	1260.801392	117.947655
193.172012	1281.298462	1269.963745	1266.415039	131.308289
193.555313	1285.621704	1275.921387	1268.845581	172.944061
193.938568	1287.686401	1279.212036	1271.684570	188.826309
194.321793	1290.460938	1281.040405	1276.136597	152.054474
194.704987	1289.019897	1284.245117	1278.954224	210.809158
195.088150	1289.234985	1288.267090	1283.750366	566.654053
195.471298	1289.493042	1288.654419	1284.761230	564.235779
195.854401	1289.772705	1286.008911	1284.202026	148.007004
196.237457	1290.568481	1284.460205	1284.632202	97.184196
196.620499	1288.439331	1282.847168	1283.427856	89.616028
197.003494	1284.438721	1283.922485	1281.513672	566.611511
197.386475	1282.524536	1283.363403	1281.234009	-153.841675
197.769424	1281.212402	1279.771484	1282.352417	-79.117249
198.152344	1276.953857	1280.287720	1281.427612	134.191345
198.535217	1276.007568	1284.933472	1279.578003	40.000820
198.918076	1276.867920	1284.051636	1279.255371	33.234211
199.300903	1277.900269	1285.406616	1274.351563	-47.276070
199.683670	1277.362671	1288.159668	1274.953613	-22.312292
200.066422	1276.029175	1290.396362	1273.985840	-14.222234
200.449142	1272.996338	1293.257080	1273.362183	1.805683
200.831848	1272.308105	1295.923950	1274.566650	9.563684
201.214508	1273.082520	1297.494019	1274.609497	6.255157
201.597137	1270.372437	1297.322144	1275.039673	17.318319
201.979736	1270.437012	1300.462280	1272.889038	8.166543
202.362274	1269.383057	1301.989380	1273.168579	11.609780
202.744827	1266.500977	1300.075073	1272.974976	19.282721
203.127319	1266.672974	1301.387085	1270.953247	12.330068
203.509796	1265.511597	1299.752441	1272.630737	20.791370
203.892227	1264.479126	1296.504761	1272.308105	24.445978
204.274643	1262.263794	1295.128174	1272.996338	32.657070
204.657013	1263.597534	1293.515137	1271.555298	26.598934
205.039352	1263.640503	1292.095581	1272.222168	30.158642
205.421661	1264.092163	1289.751221	1272.501831	32.774658
205.803940	1264.909424	1291.364380	1269.211060	16.260227
206.186188	1265.898804	1292.547241	1272.179199	23.567595
206.568405	1264.973755	1292.353638	1270.049927	18.539787
206.950592	1264.758911	1290.504028	1267.232300	9.607215
207.332748	1262.328491	1288.654297	1267.468872	19.526016
207.714859	1261.661621	1287.793945	1265.834351	15.967693
208.096939	1260.478760	1288.116577	1265.382568	17.743111
208.478989	1260.220581	1289.772583	1264.005981	12.809286
208.861008	1258.392456	1290.697388	1265.145996	20.905602
209.243011	1256.542847	1291.041504	1262.522095	17.331829
209.624969	1254.563965	1292.740723	1261.382080	17.859335
210.006897	1256.112671	1290.503906	1262.694092	19.136913
210.388794	1252.155273	1290.288940	1258.198975	15.848728
210.770645	1254.585693	1292.611816	1258.801147	11.085679
211.152481	1253.273560	1292.353638	1260.908936	19.537771
211.534286	1252.133789	1291.041626	1261.425049	23.880175
211.916061	1251.208862	1291.536255	1262.070313	26.933182
212.297791	1251.488403	1293.773193	1261.898315	24.618574
212.679489	1250.240967	1292.418213	1260.457153	24.222033
213.061157	1249.832275	1292.224731	1261.124023	26.636221
213.442795	1248.907471	1290.891113	1262.371582	32.069897
213.824402	1249.208618	1290.891113	1261.210083	28.792578
214.205963	1249.251587	1292.998901	1264.457886	34.759388
214.587524	1250.778687	1292.697754	1266.178589	36.737225
214.969025	1250.004395	1290.955688	1269.275635	47.058929
215.350510	1251.638916	1293.730347	1267.447510	37.557747
215.731949	1254.628540	1297.343628	1268.716431	32.981064
216.113358	1253.961792	1301.021484	1268.544434	30.987541
216.494736	1254.542603	1302.505493	1267.038818	26.053926
216.876083	1258.156006	1306.893066	1267.683838	19.549459
217.257401	1258.543091	1309.237427	1267.490356	17.649439
217.638702	1260.457275	1314.420898	1266.952637	12.036555
218.019943	1260.607910	1316.421265	1268.286133	13.756963
218.401169	1260.048706	1319.152710	1266.221313	10.443637
218.782349	1262.521973	1321.927246	1265.619141	5.213624
219.163498	1263.059692	1323.755371	1262.844604	-0.354371
219.544632	1262.479004	1325.282593	1263.941528	2.328727
219.925705	1262.070313	1328.229248	1261.941284	-0.195028
220.306778	1261.704712	1329.971313	1261.984375	0.409663
220.687805	1260.328247	1330.100464	1263.081299	3.945771
221.068802	1259.102417	1331.304810	1265.812866	9.293943
221.449738	1259.575439	1335.176270	1267.705566	10.754018
221.830673	1260.844482	1340.144653	1270.587646	12.286435
222.211563	1260.564819	1345.908691	1273.426636	15.070580
222.592438	1260.005615	1350.704956	1276.609741	18.306776
222.973267	1257.661133	1356.189453	1280.137085	22.811666
223.354065	1257.489136	1360.684570	1283.384766	25.093775
223.734848	1257.983765	1367.545776	1285.836670	25.422047
224.115555	1257.058838	1371.632324	1289.407104	28.233641
224.496262	1259.274292	1378.923584	1292.633301	27.880657
224.876923	1259.166748	1387.118164	1296.805908	29.416759
225.257568	1258.413940	1396.839844	1298.010376	28.604788
225.638168	1257.467651	1405.399902	1301.344116	29.659838
226.018723	1255.510376	1415.358154	1305.000488	30.960775
226.399277	1256.671875	1429.618042	1309.431030	30.506115
226.779785	1256.284668	1448.308594	1311.904419	28.965012
227.160263	1256.564331	1469.364868	1316.270630	28.057400
227.540695	1255.811523	1498.056519	1322.271362	27.434969
227.921112	1255.682495	1535.050659	1331.971558	27.307714
228.301483	1256.327637	1587.142944	1344.725830	26.721313
228.681824	1255.940552	1654.613770	1362.900146	26.828890
229.062134	1257.187988	1742.345215	1384.365112	26.213589
229.442413	1256.822388	1835.195313	1406.023682	25.796728
229.822647	1256.736450	1917.162231	1422.885986	25.157942
230.202881	1256.370850	1976.868774	1434.607788	24.738022
230.583054	1255.919067	2022.057129	1442.393677	24.339558
230.963196	1257.231079	2059.610352	1451.276489	24.183752
231.343292	1256.671875	2089.786133	1459.083984	24.295841
231.723404	1257.381592	2115.445068	1465.579468	24.263691
232.103439	1258.865601	2118.628174	1465.213623	24.000582
232.483459	1259.683105	2104.992188	1460.675537	23.777390
232.863434	1258.586060	2070.450195	1448.738525	23.421711
233.243393	1258.285034	2015.389771	1435.919800	23.462378
233.623306	1259.682983	1957.339478	1422.154663	23.288206
234.003174	1262.436035	1916.216064	1412.411621	22.939762
234.383041	1264.672852	1894.191772	1403.722412	22.088226
234.762848	1262.823120	1883.179688	1402.130737	22.456057
235.142639	1262.758667	1874.318359	1397.097900	21.966660
235.522385	1263.877075	1869.134888	1395.656738	21.772484
235.902115	1263.984619	1861.284424	1393.161865	21.626869
236.281799	1261.790894	1867.285156	1393.828613	21.806601
236.661438	1260.521851	1877.587524	1397.355957	22.174967
237.041077	1259.962646	1886.642456	1398.689453	22.136791
237.420654	1258.521606	1899.052368	1399.076660	21.943529
237.800217	1259.618530	1908.171875	1403.098755	22.123119
238.179733	1258.392456	1913.032715	1402.991211	22.088278
238.559219	1255.639526	1920.151855	1407.744385	22.889696
238.938690	1257.015991	1925.270630	1409.271484	22.784054
239.318100	1257.059082	1934.110840	1414.691528	23.282185
239.697510	1257.037476	1949.876099	1418.821045	23.350830
240.076859	1259.962524	1975.535156	1423.122681	22.801340
240.456177	1263.360840	2010.206177	1431.940918	22.572289
240.835464	1266.350464	2052.361816	1439.748291	22.060474
241.214722	1268.243286	2118.499023	1453.018799	21.731758
241.593948	1271.835083	2203.584961	1470.741333	21.347601
241.973129	1272.007080	2313.103760	1491.625732	21.094933
242.352295	1273.104004	2449.937988	1523.651123	21.289928
242.731415	1274.028809	2594.773438	1552.944946	21.118097
243.110519	1276.136597	2738.920410	1582.325073	20.931902
243.489578	1279.879028	2854.095703	1601.832764	20.451679
243.868607	1280.524292	2936.471680	1616.135620	20.267029
244.247604	1278.610107	2992.048340	1626.911255	20.327616
244.626541	1278.545654	3030.138916	1633.256226	20.250738
245.005493	1277.706665	3060.357910	1637.837402	20.201973
245.384369	1278.093872	3082.252930	1646.074951	20.396265
245.763229	1277.039917	3105.395264	1652.161743	20.516899
246.142059	1276.695801	3143.271240	1660.248779	20.548485
246.520859	1278.373413	3211.688232	1672.938599	20.408739
246.899612	1283.535278	3337.144531	1697.565186	20.161083
247.278336	1285.127075	3500.261475	1733.440674	20.238665
247.657043	1286.783081	3670.949219	1771.918335	20.348217
248.035690	1292.074097	3825.097412	1804.610596	20.234179
248.414322	1294.633545	3956.468994	1833.173340	20.231897
248.792908	1296.332642	4057.556885	1852.917603	20.157181
249.171478	1296.440308	4134.491211	1868.274536	20.148838
249.550003	1297.472656	4170.065430	1870.296387	19.941000
249.928482	1299.150269	4163.354980	1867.435547	19.840946
250.306961	1300.655762	4105.949707	1855.046875	19.762318
250.685364	1299.193237	3984.687500	1827.645752	19.678036
251.063782	1295.364746	3801.374268	1790.415283	19.754536
251.442123	1292.891357	3596.402344	1745.743286	19.659204
251.820450	1288.761841	3427.220215	1712.190674	19.800657
252.198761	1285.148438	3321.271729	1690.101929	19.888456
252.576996	1283.771973	3252.962402	1676.229248	19.929880
252.955246	1284.266724	3202.784180	1668.937988	20.050444
253.333420	1282.395508	3155.960938	1659.796997	20.143492
253.711578	1282.094360	3120.386719	1657.022583	20.395462
254.089706	1281.234009	3094.641602	1652.978882	20.499798
254.467804	1278.696167	3074.488281	1650.010986	20.676937
254.845871	1278.954224	3059.067383	1646.655762	20.656076
255.223877	1279.362915	3035.322754	1642.289429	20.668270
255.601898	1279.986572	3003.275635	1634.976685	20.599569
255.979828	1278.072266	2957.786133	1625.878784	20.706295
256.357727	1275.921509	2903.155518	1614.995728	20.837460
256.735657	1277.986328	2861.386719	1606.758179	20.763659
257.113525	1275.469849	2853.579346	1603.661011	20.796476
257.491333	1275.814087	2883.432617	1611.554321	20.884323
257.869110	1277.921875	2942.601318	1623.082764	20.734375
258.246887	1279.448975	3030.805664	1640.418335	20.610842
258.624573	1278.932617	3157.036133	1664.270630	20.517401
259.002289	1279.792969	3341.295898	1701.737793	20.467825
259.379944	1281.255493	3600.080322	1755.572388	20.455055
259.757538	1282.567505	3934.035400	1824.312012	20.431871
260.135162	1288.331665	4299.199219	1895.116455	20.153154
260.512665	1292.977417	4625.433105	1961.705200	20.067118
260.890228	1291.622437	4865.914551	2009.668335	20.089178
261.267700	1292.805298	5017.804199	2039.542969	20.046654
261.645142	1295.235718	5103.686035	2053.480225	19.909529
262.022552	1294.805542	5155.219238	2061.244385	19.853802
262.399994	1293.084839	5181.330078	2065.094482	19.854963
262.777313	1296.268066	5170.166992	2062.406006	19.776920
263.154602	1296.010010	5093.103516	2044.683472	19.717014
263.531921	1295.536865	4939.601074	2008.356323	19.561111
263.909149	1293.988281	4691.892578	1957.769653	19.535023
264.286377	1290.611450	4405.685547	1898.493652	19.514212
264.663574	1287.385254	4147.826172	1844.873779	19.489601
265.040710	1289.364136	3970.470947	1806.783203	19.298710
265.417816	1288.245605	3871.103271	1787.769897	19.339985
265.794891	1288.611206	3844.691650	1783.898560	19.376829
266.171936	1288.976929	3865.167236	1787.748413	19.360815
266.548950	1289.170532	3915.560791	1795.749512	19.288033
266.925934	1287.621948	3973.847412	1805.341919	19.273138
267.302887	1286.912231	4037.941162	1816.870361	19.263998
267.679810	1286.202515	4101.884766	1828.484741	19.259356
268.056671	1288.869385	4178.711426	1842.077759	19.143204
268.433502	1289.901733	4260.613770	1855.369873	19.034769
268.810333	1290.138184	4344.064453	1868.812378	18.948532
269.187073	1288.159546	4420.568848	1882.061035	18.959894
269.563843	1291.127808	4495.244629	1892.406372	18.765814
269.940521	1290.525513	4550.649414	1899.891357	18.691492
270.317200	1290.826538	4602.333496	1907.268799	18.615158
270.693848	1291.837402	4668.664063	1921.291870	18.640413
271.070435	1295.063599	4802.809570	1944.326904	18.509417
271.447021	1298.569458	4975.347168	1976.201660	18.430056
271.823547	1300.892456	5153.003418	2008.420654	18.367285
272.200043	1301.236450	5297.623535	2031.498901	18.273066
272.576538	1301.731201	5417.380371	2057.007568	18.351330
272.952972	1303.602417	5524.404297	2076.128174	18.302820
273.329346	1305.452026	5626.266602	2094.969482	18.272423
273.705688	1305.495117	5704.082520	2110.670410	18.305315
274.082062	1306.118896	5763.487793	2123.446045	18.336536
274.458344	1304.914429	5788.759766	2126.156006	18.315565
274.834595	1307.861206	5770.413574	2119.424072	18.186069
275.210846	1304.936035	5690.102051	2101.830566	18.172506
275.587006	1301.774292	5586.046387	2080.644775	18.179762
275.963165	1300.913818	5493.390137	2065.137695	18.228458
276.339294	1300.182495	5446.760742	2055.888916	18.224821
276.715393	1300.763184	5423.337891	2046.339722	18.085217
277.091461	1301.064331	5414.713867	2042.425293	18.021976
277.467438	1302.591553	5411.982422	2041.715576	17.986219
277.843445	1302.526978	5416.176270	2038.532349	17.891787
278.219452	1303.602417	5431.188965	2035.843750	17.740181
278.595337	1304.226196	5454.288574	2042.769409	17.795954
278.971191	1304.570313	5486.980957	2047.049561	17.752424
279.347046	1307.344849	5512.983887	2051.673828	17.698357
279.722870	1309.753784	5537.567871	2054.426758	17.613665
280.098663	1310.377441	5561.312988	2057.222900	17.568968
280.474396	1310.979614	5597.123535	2061.653320	17.513964
280.850098	1312.055054	5649.495605	2072.041748	17.521547
281.225800	1313.108887	5724.945801	2085.677734	17.511274
281.601440	1313.517578	5833.131348	2102.389648	17.454412
281.977051	1313.797119	5982.203613	2129.790771	17.479063
282.352600	1314.700439	6137.964355	2159.837402	17.522097
282.728149	1317.496582	6282.090332	2185.646973	17.486837
283.103668	1317.475098	6392.448242	2204.616943	17.480721
283.479156	1319.604370	6480.501953	2222.318359	17.491415
283.854553	1319.668945	6564.039551	2241.869141	17.584574
284.229950	1320.851929	6661.018555	2256.258057	17.516422
284.605347	1322.895142	6765.247070	2271.550293	17.430977
284.980652	1320.787354	6863.861328	2289.746094	17.480530
285.355988	1320.916382	6953.184570	2305.059570	17.473301
285.731201	1319.260254	7031.666992	2317.792725	17.480066
286.106445	1319.776489	7098.621582	2329.213379	17.467796
286.481659	1320.228027	7166.027832	2341.214844	17.465305
286.856781	1320.464722	7232.853516	2350.656982	17.424299
287.231934	1318.894653	7298.947266	2361.217285	17.429991
287.607025	1316.464233	7346.716797	2365.411377	17.394747
287.982056	1316.894409	7365.557617	2364.572510	17.320822
288.357086	1315.732910	7357.599609	2366.292969	17.388004
288.732086	1311.667969	7326.048340	2364.249756	17.501085
289.107025	1310.850708	7290.688965	2358.206055	17.514776
289.481934	1310.571045	7261.221680	2351.882568	17.499121
289.856842	1311.818359	7236.639160	2346.849854	17.469414
290.231659	1311.022583	7237.713867	2344.957275	17.445395
290.606506	1311.689331	7248.296387	2345.581055	17.415533
290.981262	1312.184082	7264.535645	2347.000732	17.385006
291.355988	1309.947144	7285.590820	2350.807617	17.418383
291.730713	1311.646362	7312.411133	2361.905518	17.502089
292.105377	1310.377319	7339.360840	2366.723389	17.521132
292.480011	1310.484985	7357.492188	2371.906494	17.552839
292.854614	1312.549683	7364.181152	2376.810547	17.586346
293.229187	1313.861694	7380.162109	2383.607178	17.634232
293.603729	1313.517578	7405.820801	2398.727539	17.812803
293.978241	1312.506714	7443.051270	2419.375244	18.054979
294.352692	1314.033691	7473.033203	2441.012207	18.298079
294.727081	1313.603638	7494.950195	2462.778320	18.591009
295.101501	1311.560425	7516.952637	2485.275635	18.914440
295.475830	1314.722168	7571.195801	2517.258057	19.220665
295.850189	1317.367676	7669.617676	2555.822021	19.496309
296.224457	1320.572266	7832.454590	2613.979492	19.862263
296.598694	1323.067261	8046.718262	2681.471924	20.203379
296.972931	1324.938354	8301.458984	2760.062256	20.570768
297.347107	1326.938599	8538.541016	2831.383057	20.861444
297.721283	1328.874390	8714.519531	2890.895752	21.149424
298.095367	1331.175781	8806.853516	2929.997803	21.386984
298.469452	1331.648926	8820.446289	2953.290771	21.654236
298.843475	1328.057129	8795.217773	2964.238281	21.911692
299.217529	1329.046387	8756.138672	2973.013428	22.134733
299.591492	1328.444214	8698.583984	2975.874268	22.352766
299.965424	1325.196533	8618.014648	2971.292969	22.571472
300.339325	1323.841553	8485.374023	2952.903809	22.747398
300.713196	1320.120605	8301.758789	2919.630615	22.910240
301.087036	1318.830078	8080.785645	2879.926758	23.086468
301.460815	1318.313965	7865.405762	2840.911377	23.256088
301.834564	1318.830200	7684.758301	2809.767822	23.420586
302.208282	1315.969482	7537.729980	2786.324219	23.632454
302.582001	1314.270386	7416.811035	2762.105957	23.725128
302.955658	1316.012573	7311.185547	2743.350830	23.808125
303.329254	1312.506714	7221.174805	2726.359375	23.928450
303.702820	1310.958130	7142.068359	2715.239746	24.082577
304.076416	1310.807495	7075.995117	2707.131104	24.219917
304.449921	1307.430786	7021.515137	2697.215820	24.322094
304.823395	1309.603027	6969.917480	2693.473389	24.448648
305.196838	1308.527588	6920.384277	2683.773193	24.506073
305.570251	1308.183594	6865.559570	2674.912109	24.593054
305.943604	1304.828369	6805.509766	2664.738770	24.722580
306.316986	1304.312256	6761.246582	2657.340088	24.794651
306.690277	1306.420044	6728.404297	2657.447510	24.917583
307.063507	1305.581177	6712.079590	2661.448242	25.078468
307.436768	1305.989746	6721.134277	2669.083496	25.171881
307.809937	1307.258789	6748.900391	2677.729736	25.184881
308.183136	1308.011597	6803.165527	2692.957520	25.203041
308.556244	1310.054810	6877.411133	2719.154297	25.310028
308.929321	1309.172974	6967.895508	2747.630859	25.420187
309.302399	1310.226929	7060.530762	2778.086182	25.526638
309.675446	1309.043945	7157.489258	2809.165039	25.649912
310.048401	1308.054565	7253.113770	2838.674072	25.746077
310.421356	1309.237427	7348.910645	2870.032959	25.842382
310.794281	1307.839355	7451.095215	2899.864502	25.915007
311.167145	1308.248047	7564.163574	2929.782227	25.920013
311.539978	1312.119507	7661.917480	2961.656982	25.977795
311.912781	1313.324097	7733.152832	2981.444580	25.983879
312.285553	1312.012207	7749.498047	2992.542725	26.105387
312.658295	1312.399292	7722.591797	2987.574463	26.132994
313.031006	1312.227295	7670.456055	2973.637207	26.130075
313.403656	1311.839966	7615.524902	2959.786133	26.142584
313.776276	1313.603638	7565.497070	2947.418945	26.133127
314.148865	1316.313599	7539.773438	2940.106445	26.091480
314.521454	1316.442627	7537.837402	2935.933838	26.031000
314.893982	1316.958862	7538.117188	2936.084229	26.026108
315.266449	1319.109619	7502.563965	2929.954590	26.050892
315.638885	1316.851440	7438.685547	2911.220947	26.043985
316.011322	1317.281494	7355.319824	2893.476807	26.104427
316.383667	1318.270752	7282.773438	2873.280762	26.071075
316.756042	1318.722534	7224.507813	2858.031738	26.064430
317.128326	1319.754883	7172.802734	2847.449707	26.100843
317.500610	1316.872803	7118.904297	2834.394287	26.155005
317.872833	1315.517700	7058.530762	2819.854980	26.194216
318.245087	1312.592651	6980.606445	2798.153076	26.209541
318.617218	1311.775391	6885.283203	2775.548096	26.263042
318.989319	1309.839722	6806.929199	2754.341309	26.277571
319.361420	1307.043823	6756.320801	2737.887695	26.257500
319.733490	1306.484497	6723.543457	2731.262939	26.301697
320.105530	1303.193726	6701.368652	2725.090088	26.340317
320.477509	1298.741699	6679.085938	2718.293701	26.384037
320.849457	1295.622925	6653.877930	2713.239258	26.456680
321.221375	1294.181763	6644.543945	2707.539795	26.416119
321.593231	1295.364746	6637.381348	2703.517822	26.359953
321.965088	1295.988525	6641.230957	2702.657471	26.316280
322.336884	1297.451050	6650.199707	2706.163330	26.317551
322.708618	1298.461914	6680.289551	2708.056152	26.191738
323.080414	1300.526733	6712.143555	2715.347168	26.144136
323.452118	1301.537598	6778.215820	2734.403320	26.163044
323.823761	1302.053833	6891.305176	2760.062500	26.085938
324.195343	1303.752930	7021.881348	2791.851318	26.024221
324.566925	1308.140503	7158.586426	2824.177979	25.913197
324.938507	1310.484863	7291.462891	2852.611572	25.783855
325.310059	1310.893677	7398.078125	2877.259766	25.732193
325.681519	1313.496216	7515.812988	2902.316650	25.616564
326.052948	1312.979980	7614.276855	2926.642334	25.608418
326.424408	1312.786377	7704.826172	2942.106445	25.489828
326.795776	1312.786255	7749.067383	2957.656494	25.556221
327.167084	1309.667603	7759.735840	2958.129883	25.557283
327.538391	1308.957886	7717.257813	2942.149414	25.485567
327.909668	1310.183716	7621.181641	2914.748047	25.424891
328.280884	1310.743042	7526.180176	2888.207275	25.379780
328.652100	1311.216187	7433.007324	2861.838135	25.329548
329.023254	1311.689331	7353.792480	2839.276367	25.282373
329.394348	1310.377441	7294.752930	2824.306885	25.298037
329.765442	1308.334106	7218.937500	2807.100586	25.357250
330.136475	1307.710449	7146.906738	2787.764648	25.346882
330.507538	1307.065308	7068.682617	2769.461182	25.381691
330.878479	1305.237061	7011.600098	2754.943604	25.405087
331.249420	1306.183472	6968.970703	2744.684326	25.402700
331.620331	1307.000732	6957.249512	2738.231934	25.330410
331.991211	1306.032837	6973.101074	2741.350586	25.327341
332.362030	1306.054321	6997.232910	2747.953857	25.335693
332.732819	1303.387329	7032.440918	2758.342285	25.396078
333.103577	1303.451782	7069.478027	2766.493896	25.373489
333.474304	1304.312256	7093.954590	2771.031738	25.333506
333.845001	1305.193970	7117.806641	2777.785400	25.334415
334.215668	1306.075806	7138.390625	2781.699707	25.300827
334.586273	1307.280396	7167.339355	2794.712158	25.382538
334.956818	1307.753540	7190.611328	2799.271729	25.353632
335.327362	1309.108521	7225.347168	2806.476807	25.309464
335.697876	1309.818237	7243.090820	2816.112305	25.387239
336.068329	1310.441895	7256.706055	2819.403076	25.376625
336.438751	1310.312988	7261.888672	2818.284668	25.337353
336.809174	1313.345581	7257.523438	2816.499268	25.287832
337.179504	1315.646973	7261.846680	2822.263916	25.337477
337.549896	1316.485840	7286.837891	2829.748535	25.346289
337.920135	1315.797607	7324.413574	2837.469727	25.324835
338.290375	1315.668457	7372.655762	2847.879639	25.296589
338.660614	1316.980347	7418.403320	2853.299805	25.179691
339.030792	1318.636475	7470.968262	2860.677002	25.064325
339.400940	1318.249390	7504.671875	2869.452393	25.074314
339.771027	1317.582642	7537.944824	2879.561035	25.110729
340.141083	1319.088257	7578.401367	2886.271729	25.037628
340.511139	1319.712036	7612.470215	2896.659912	25.059725
340.881134	1318.528931	7659.206543	2909.156250	25.086077
341.251068	1318.141846	7686.134766	2917.415527	25.114250
341.621002	1319.733276	7708.438965	2923.760010	25.107225
341.990875	1323.131714	7728.937012	2926.620605	25.031809
342.360718	1325.304077	7735.474609	2931.115723	25.050999
342.730560	1324.400757	7744.852051	2938.364258	25.137852
343.100311	1326.293457	7763.907715	2949.784912	25.218838
343.470032	1328.272217	7813.010742	2957.506348	25.124130
343.839752	1330.057373	7885.707520	2971.120850	25.032810
344.209442	1330.982178	7960.534180	2991.940430	25.053854
344.579041	1331.993042	8052.932617	3018.072754	25.086966
344.948639	1334.509521	8144.105957	3039.817383	25.042715
345.318176	1334.853516	8244.891602	3065.433594	25.044436
345.687714	1334.552368	8335.805664	3089.393555	25.064672
346.057190	1333.756592	8412.267578	3115.461182	25.170614
346.426636	1331.971558	8482.621094	3132.474121	25.179567
346.796051	1332.552246	8530.927734	3143.636719	25.159628
347.165405	1330.508911	8543.187500	3143.873291	25.141344
347.534729	1331.261719	8527.056641	3141.507568	25.156996
347.904083	1331.498291	8478.491211	3126.731445	25.118719
348.273315	1331.261597	8410.589844	3113.332031	25.172874
348.642517	1330.874512	8338.624023	3091.092773	25.118168
349.011719	1329.304443	8267.605469	3075.950928	25.173981
349.380890	1329.691528	8203.016602	3054.787354	25.098417
349.749969	1329.261475	8157.311035	3040.914307	25.067961
350.119049	1329.390503	8122.855957	3028.740723	25.014482
350.488098	1330.616577	8108.423828	3024.676025	24.994211
350.857117	1329.541138	8104.294922	3023.127441	24.998491
351.226074	1331.283325	8127.136230	3027.579590	24.960756
351.595001	1330.100464	8150.601563	3036.333008	25.016235
351.963867	1329.304565	8194.585938	3050.980225	25.078007
352.332764	1331.240234	8246.764648	3066.100098	25.086454
352.701538	1330.745605	8309.115234	3083.306396	25.114187
353.070343	1332.810303	8385.533203	3101.911133	25.083942
353.439056	1333.756714	8478.707031	3126.817383	25.095495
353.807770	1335.348267	8577.084961	3151.508545	25.079071
354.176453	1337.864746	8670.364258	3175.060059	25.055511
354.545105	1340.381226	8772.077148	3201.235352	25.039429
354.913666	1344.833374	8899.576172	3231.066650	24.967539
355.282227	1346.661621	9039.055664	3270.641602	25.011459
355.650757	1349.651245	9191.590820	3312.883545	25.035036
356.019226	1352.554688	9350.427734	3356.716553	25.058685
356.387695	1353.350586	9525.352539	3400.722412	25.053492
356.756104	1359.179199	9727.140625	3453.072754	25.022745
357.124451	1362.641968	9968.611328	3517.166992	25.035236
357.492828	1364.685181	10213.868164	3583.067383	25.068783
357.861084	1369.115845	10435.530273	3641.418945	25.062866
358.229401	1372.191528	10625.790039	3694.500732	25.096281
358.597595	1372.944458	10758.193359	3728.805664	25.101746
358.965759	1374.062866	10865.517578	3761.111084	25.149446
359.333923	1377.073975	10958.734375	3783.974365	25.119867
359.702057	1379.246216	11091.374023	3814.817139	25.077623
360.070129	1382.429565	11249.199219	3855.144531	25.061037
360.438141	1384.451172	11443.826172	3901.042725	25.017374
360.806122	1385.612671	11654.196289	3959.071045	25.061474
361.174133	1389.699219	11906.572266	4022.046631	25.029753
361.542053	1394.022339	12192.563477	4100.421875	25.062639
361.909912	1397.442139	12476.599609	4176.689453	25.085367
362.277771	1399.184204	12736.912109	4244.418457	25.095280
362.645599	1402.862061	12921.149414	4296.468262	25.121845
363.013367	1404.152588	13021.571289	4322.298828	25.118713
363.381134	1404.346191	13047.337891	4333.784668	25.160530
363.748810	1400.732788	12986.578125	4325.589844	25.245089
364.116455	1398.990601	12855.375977	4293.886719	25.268843
364.484100	1396.818237	12650.535156	4246.354004	25.320841
364.851715	1394.904053	12370.671875	4174.645996	25.326174
365.219238	1388.322510	11973.160156	4075.623291	25.388208
365.586761	1382.493896	11498.027344	3949.113037	25.373049
365.954224	1378.321289	11039.109375	3830.990723	25.387882
366.321686	1372.342041	10633.854492	3726.160400	25.415052
366.689117	1367.481323	10359.626953	3657.786621	25.470064
367.056458	1363.287231	10173.711914	3612.404053	25.527903
367.423737	1361.437500	10042.621094	3578.873535	25.543015
367.791077	1363.050659	9931.187500	3546.159912	25.479395
368.158295	1360.985840	9845.670898	3518.629639	25.429861
368.525543	1359.157593	9765.295898	3495.960205	25.419552
368.892700	1357.910156	9695.201172	3475.677979	25.401150
369.259827	1353.995728	9637.989258	3458.471191	25.404119
369.626953	1353.866699	9598.737305	3452.621338	25.455275
369.994019	1351.758911	9565.443359	3443.523438	25.466825
370.361053	1352.275146	9548.214844	3439.243164	25.463438
370.728027	1352.189087	9533.718750	3433.522461	25.439417
371.094971	1351.780396	9534.988281	3434.253662	25.448126
371.461914	1352.769775	9558.130859	3438.683838	25.421356
371.828796	1351.737427	9594.414063	3447.867920	25.430214
372.195618	1350.339355	9626.719727	3459.095459	25.479206
372.562408	1351.974121	9658.831055	3473.139893	25.535116
372.929199	1351.586792	9693.179688	3480.366455	25.520063
373.295898	1355.501343	9733.291992	3492.217285	25.504526
373.662598	1356.060547	9780.587891	3501.444336	25.465925
374.029236	1356.576660	9817.689453	3511.316650	25.466389
374.395844	1356.877808	9856.899414	3517.403320	25.417881
374.762421	1355.823853	9897.225586	3523.705322	25.380863
375.128967	1357.114380	9936.629883	3533.405518	25.366129
375.495483	1354.533447	9986.249023	3548.095215	25.412813
375.861908	1355.931519	10070.731445	3572.248535	25.431644
376.228333	1357.974731	10203.887695	3611.780518	25.478497
376.594727	1358.942505	10389.137695	3656.968994	25.448246
376.961090	1361.545044	10614.305664	3720.116943	25.490465
377.327393	1363.480713	10855.839844	3781.285400	25.471062
377.693665	1365.072388	11066.941406	3838.518799	25.494534
378.059906	1364.427246	11233.047852	3883.363037	25.524698
378.426086	1365.932739	11330.974609	3918.593506	25.616156
378.792267	1369.825684	11394.444336	3938.832031	25.626972
379.158386	1371.030151	11416.447266	3945.822510	25.631514
379.524445	1369.976318	11407.844727	3940.402344	25.607290
379.890503	1369.309448	11373.172852	3929.024414	25.587263
380.256531	1369.072998	11302.153320	3904.871094	25.528820
380.622467	1364.900513	11182.784180	3873.253906	25.548820
380.988403	1360.878418	11019.000977	3829.420410	25.559231
381.354279	1356.146606	10836.203125	3784.145996	25.611656
381.720154	1352.726807	10673.344727	3739.259277	25.604874
382.085968	1351.909424	10543.047852	3705.985840	25.612457
382.451752	1349.995239	10486.180664	3683.854492	25.545227
382.817474	1345.026855	10469.597656	3682.972656	25.622530
383.183197	1343.693359	10503.063477	3688.521729	25.600323
383.548859	1345.500000	10561.652344	3706.867920	25.622059
383.914490	1344.467651	10627.725586	3722.999023	25.621731
384.280060	1345.672119	10690.206055	3743.216553	25.657185
384.645599	1349.844727	10754.623047	3763.735107	25.666637
385.011108	1351.522339	10825.126953	3785.394287	25.691088
385.376617	1353.823730	10908.878906	3809.482910	25.700106
385.742035	1354.684082	11003.621094	3834.196045	25.697254
386.107452	1356.727417	11107.333984	3861.101807	25.684296
386.472778	1357.028442	11198.656250	3890.353271	25.740911
386.838135	1359.932007	11293.549805	3913.990479	25.711262
387.203430	1361.437622	11367.687500	3933.734619	25.706902
387.568634	1361.286987	11435.739258	3950.661133	25.702381
387.933838	1362.233276	11474.819336	3964.534180	25.733288
388.299042	1361.329956	11511.188477	3971.331055	25.714655
388.664124	1358.791992	11539.451172	3975.331299	25.701080
389.029236	1358.705933	11556.485352	3976.815430	25.673328
389.394318	1358.598511	11564.163086	3976.385254	25.650581
389.759308	1359.050049	11561.776367	3977.202393	25.661301
390.124298	1359.931885	11585.113281	3982.106201	25.644281
390.489227	1360.405151	11632.730469	3990.580322	25.604479
390.854126	1363.179688	11712.761719	4009.141602	25.565882
391.218964	1363.287231	11838.283203	4040.909424	25.562035
391.583771	1363.588379	11981.677734	4073.150146	25.518354
391.948578	1364.190552	12133.137695	4112.358887	25.519379
392.313354	1365.201538	12250.250000	4143.523926	25.524206
392.678040	1366.061890	12350.002930	4171.742676	25.543478
393.042694	1366.363037	12448.102539	4196.691895	25.540476
393.407349	1366.793091	12559.469727	4228.158203	25.564619
393.771942	1366.276855	12693.099609	4263.753418	25.580666
394.136505	1365.739136	12809.715820	4296.359863	25.608412
394.501007	1365.158325	12885.081055	4318.835938	25.639736
394.865479	1362.362427	12878.089844	4320.040527	25.683815
395.229919	1360.469604	12786.056641	4299.995117	25.727566
395.594360	1360.104004	12648.211914	4269.970215	25.778158
395.958710	1358.168213	12487.438477	4229.685547	25.801487
396.323029	1359.523315	12344.819336	4195.444824	25.815613
396.687286	1358.146729	12222.093750	4165.526855	25.841253
397.051544	1360.039551	12111.457031	4137.136230	25.830050
397.415771	1359.179199	11980.452148	4103.626953	25.839159
397.779938	1358.318726	11827.401367	4062.094727	25.826292
398.144043	1355.673340	11671.833984	4022.477295	25.850742
398.508148	1356.469116	11518.610352	3981.482910	25.831305
398.872192	1356.189575	11394.616211	3951.027344	25.849049
399.236237	1355.350830	11314.026367	3929.799072	25.851311
399.600189	1356.189575	11257.115234	3911.151611	25.805283
399.964111	1356.856323	11216.551758	3898.139160	25.774454
400.328003	1354.425903	11190.957031	3892.912598	25.806728
400.691925	1356.275635	11172.675781	3889.041260	25.801369
401.055695	1353.866699	11166.674805	3887.213135	25.816730
401.419495	1353.544067	11164.954102	3883.599365	25.786865
401.783234	1353.888184	11182.396484	3890.331787	25.807007
402.146942	1355.823853	11181.772461	3892.310303	25.814163
402.510620	1354.533325	11216.336914	3903.666504	25.848551
402.874237	1354.339844	11263.202148	3914.549805	25.837578
403.237823	1355.866943	11339.016602	3937.498535	25.859892
403.601379	1355.888428	11444.148438	3967.330322	25.885950
403.964874	1355.372192	11595.048828	4009.550537	25.920527
404.328369	1356.146484	11759.886719	4052.222656	25.914490
404.691772	1357.630615	11933.800781	4095.647705	25.888550
405.055176	1357.501465	12084.485352	4135.544922	25.897711
405.418549	1358.426392	12229.471680	4175.872559	25.916977
405.781860	1359.200684	12337.485352	4208.177734	25.951021
406.145142	1360.426636	12448.811523	4235.234863	25.926302
406.508362	1362.254761	12518.819336	4253.860352	25.918423
406.871552	1361.136353	12561.362305	4264.141113	25.919165
407.234741	1361.867554	12562.030273	4263.367188	25.905869
407.597870	1360.792236	12520.647461	4254.634766	25.930824
407.960938	1362.340820	12456.339844	4236.288574	25.905426
408.323975	1362.663574	12370.886719	4215.984863	25.919909
408.686981	1360.727783	12293.264648	4195.637695	25.930943
409.049957	1361.416016	12241.559570	4183.099121	25.934246
409.412903	1363.007690	12215.985352	4178.625488	25.943274
409.775787	1364.405762	12229.450195	4179.012695	25.905157
410.138611	1363.459351	12273.197266	4188.497070	25.894642
410.501434	1364.298218	12328.452148	4204.111816	25.900888
410.864227	1366.771606	12373.488281	4213.833496	25.866587
411.226929	1367.717896	12423.409180	4219.942383	25.798700
411.589630	1369.524536	12473.394531	4232.653320	25.784964
411.952271	1370.793457	12497.547852	4239.836914	25.785089
412.314911	1371.116089	12522.303711	4248.009766	25.798988
412.677490	1370.599976	12536.693359	4254.312012	25.825611
413.040009	1373.675659	12560.458984	4257.603027	25.779772
413.402496	1372.557129	12553.318359	4254.978516	25.780188
413.764984	1368.427612	12534.865234	4251.107422	25.815571
414.127380	1367.889893	12502.602539	4243.923340	25.829435
414.489777	1366.900635	12490.407227	4244.202637	25.866861
414.852112	1367.459839	12512.194336	4255.925293	25.917759
415.214386	1366.276855	12548.994141	4275.110352	26.011868
415.576660	1366.018799	12629.650391	4300.253418	26.050520
415.938904	1364.233643	12746.977539	4335.677734	26.104813
416.301086	1366.900635	12896.694336	4374.736328	26.087505
416.663208	1370.793579	13069.619141	4418.720215	26.053272
417.025299	1371.159180	13253.083984	4474.554688	26.118626
417.387390	1373.374512	13469.753906	4537.874512	26.160721
417.749420	1380.472168	13732.582031	4609.582031	26.142174
418.111389	1384.580200	14027.824219	4692.796387	26.165882
418.473328	1387.720337	14356.853516	4779.452637	26.152346
418.835266	1391.333740	14718.684570	4875.034180	26.139482
419.197144	1397.441895	15121.508789	4981.627930	26.116064
419.558960	1401.292114	15548.528320	5094.609375	26.106281
419.920746	1408.045532	16017.491211	5226.583008	26.137457
420.282471	1412.325562	16561.236328	5372.751465	26.143303
420.644226	1418.304810	17156.554688	5533.739258	26.149252
421.005920	1422.219238	17755.876953	5698.534180	26.181000
421.367523	1427.273682	18320.054688	5849.456055	26.177942
421.729126	1429.531860	18822.029297	5989.731445	26.219349
422.090668	1432.177490	19260.212891	6113.552734	26.258503
422.452179	1434.156128	19616.773438	6212.941895	26.282166
422.813660	1435.876831	19942.878906	6310.910645	26.341564
423.175110	1438.242676	20241.583984	6399.911133	26.387163
423.536469	1438.930908	20520.156250	6486.954590	26.455448
423.897858	1439.425659	20782.404297	6560.640625	26.475834
424.259155	1439.124512	20923.882813	6609.700195	26.536514
424.620453	1437.791016	20975.201172	6635.832520	26.605581
424.981689	1438.092163	20959.500000	6635.725098	26.625296
425.342865	1438.715942	20913.107422	6638.951660	26.702946
425.704041	1441.017334	20834.367188	6627.423340	26.743221
426.065186	1441.318359	20749.023438	6608.496582	26.762260
426.426239	1441.447388	20644.773438	6589.396973	26.807594
426.787262	1439.941895	20466.019531	6546.617188	26.840399
427.148254	1437.102783	20225.689453	6487.168945	26.878374
427.509216	1434.994995	19907.519531	6402.534668	26.891502
427.870178	1432.973145	19504.158203	6297.360840	26.917923
428.231049	1430.155762	19086.945313	6181.539551	26.909670
428.591858	1426.585327	18670.699219	6071.956543	26.938881
428.952698	1421.509399	18269.832031	5966.760742	26.977472
429.313446	1416.842163	17885.699219	5861.780273	26.989960
429.674164	1412.239380	17541.742188	5769.102051	27.011761
430.034851	1408.862793	17206.625000	5682.812012	27.054144
430.395477	1408.174561	16918.267578	5611.835449	27.102747
430.756104	1406.539917	16688.412109	5551.010742	27.120176
431.116699	1404.991333	16488.386719	5497.326660	27.131393
431.477203	1406.174316	16316.538086	5455.493652	27.157751
431.837646	1405.937744	16210.290039	5432.695313	27.199821
432.198090	1405.442993	16155.550781	5431.296875	27.293726
432.558502	1405.980713	16141.225586	5434.888672	27.341982
432.918884	1408.196045	16152.410156	5451.020020	27.419733
433.279205	1407.335693	16212.224609	5471.581543	27.452053
433.639465	1406.496948	16264.639648	5496.917969	27.529827
433.999756	1405.593628	16348.177734	5527.630859	27.585838
434.359924	1404.410645	16430.123047	5551.784668	27.601845
434.720093	1404.518188	16499.076172	5578.562012	27.652641
435.080200	1403.464355	16569.537109	5605.726563	27.708309
435.440277	1401.679077	16644.814453	5633.966797	27.765203
435.800354	1398.495972	16696.929688	5655.001953	27.823149
436.160370	1396.302124	16723.988281	5666.938477	27.862236
436.520325	1393.333984	16741.214844	5678.251465	27.918627
436.880249	1391.785278	16744.398438	5683.004883	27.951071
437.240112	1393.635010	16742.140625	5693.414551	28.014318
437.599976	1393.355347	16763.734375	5705.352051	28.053938
437.959808	1397.248413	16810.578125	5724.150391	28.072466
438.319519	1396.538574	16871.531250	5747.034668	28.113075
438.679260	1397.011841	16968.898438	5781.941895	28.159273
439.038940	1398.001221	17101.580078	5833.905762	28.247728
439.398590	1401.313354	17284.636719	5898.429688	28.313446
439.758179	1403.593384	17510.082031	5969.233887	28.346592
440.117767	1407.679810	17808.658203	6065.460938	28.399410
440.477295	1412.691284	18135.470703	6163.322266	28.408142
440.836792	1416.992798	18487.625000	6274.002930	28.452433
441.196198	1416.627075	18806.761719	6368.638672	28.475983
441.555603	1421.165405	19081.398438	6457.853516	28.519941
441.914978	1420.154419	19270.431641	6529.195801	28.621637
442.274323	1422.004272	19408.857422	6585.353516	28.706240
442.633575	1425.854004	19502.654297	6628.907715	28.783045
442.992859	1430.349365	19538.033203	6644.199707	28.793581
443.352051	1429.618042	19510.417969	6647.188965	28.856968
443.711182	1431.231201	19432.322266	6635.983887	28.913540
444.070313	1430.263306	19310.414063	6608.281250	28.959589
444.429382	1427.660767	19152.394531	6582.858887	29.084770
444.788452	1426.649902	19016.162109	6556.252930	29.162851
445.147430	1428.886719	18932.904297	6546.639160	29.237587
445.506409	1427.617676	18915.289063	6551.262695	29.298611
445.865295	1427.380981	18997.214844	6580.923340	29.331766
446.224182	1430.048096	19166.203125	6644.586426	29.400614
446.583038	1428.607056	19404.511719	6723.821777	29.457293
446.941833	1427.725220	19672.609375	6822.974609	29.571299
447.300598	1428.564087	19946.794922	6918.599609	29.646654
447.659302	1429.467529	20195.962891	7010.524902	29.739475
448.018005	1432.112915	20390.330078	7089.738770	29.842606
448.376648	1434.435913	20546.457031	7156.263672	29.938370
448.735229	1433.812256	20616.380859	7191.492676	30.015171
449.093781	1430.155762	20626.341797	7210.376953	30.111301
449.452301	1426.327271	20563.126953	7213.538574	30.241272
449.810791	1426.456299	20426.488281	7194.460938	30.357870
450.169220	1422.499023	20185.425781	7141.465332	30.480141
450.527618	1420.004028	19889.474609	7067.176758	30.575716
450.885956	1415.831421	19574.554688	6988.414063	30.688185
451.244263	1413.293457	19276.238281	6914.555176	30.797058
451.602539	1410.927612	19023.753906	6855.193359	30.910801
451.960785	1408.432617	18834.052734	6813.403320	31.017378
452.318970	1408.174561	18676.830078	6784.561035	31.133787
452.677124	1405.507568	18535.242188	6765.913574	31.292992
453.035248	1404.324585	18393.332031	6742.598633	31.421928
453.393311	1406.131226	18235.076172	6712.187012	31.529341
453.751312	1404.216919	18067.550781	6673.406738	31.621462
454.109314	1406.432251	17921.660156	6643.468262	31.710346
454.467285	1404.862183	17778.740234	6614.841797	31.818850
454.825195	1404.432129	17644.810547	6583.009277	31.887047
455.183044	1402.474854	17489.566406	6549.929688	31.997425
455.540894	1400.797363	17304.662109	6506.161133	32.101402
455.898651	1399.248535	17107.042969	6464.134277	32.244411
456.256378	1395.871948	16915.341797	6410.127930	32.309452
456.614105	1394.301758	16754.355469	6374.123047	32.420597
456.971771	1392.602661	16626.273438	6355.625488	32.579296
457.329407	1389.247437	16578.355469	6358.012695	32.712685
457.686981	1388.881836	16595.927734	6386.317383	32.862633
458.044525	1384.881348	16716.048828	6444.109863	32.999630
458.402008	1386.731079	16913.148438	6538.487305	33.180588
458.759460	1390.258301	17222.691406	6669.127930	33.342125
459.116913	1395.850464	17682.341797	6847.708984	33.474728
459.474274	1400.883301	18285.017578	7081.737793	33.646111
459.831635	1406.840942	18900.771484	7319.896484	33.800613
460.188904	1411.508301	19491.898438	7551.279297	33.958176
460.546173	1418.562866	19993.939453	7744.829590	34.057270
460.903381	1425.251831	20382.978516	7900.397949	34.155708
461.260559	1430.177246	20662.236328	8022.069824	34.275543
461.617706	1433.424927	20856.863281	8113.241699	34.390499
461.974762	1433.037842	20902.890625	8156.171875	34.530994
462.331848	1433.016357	20853.939453	8161.591797	34.646011
462.688843	1426.671509	20652.968750	8118.510742	34.805660
463.045837	1421.208374	20278.253906	8018.004395	34.983189
463.402740	1416.068115	19744.960938	7862.973633	35.173458
463.759613	1410.131836	19186.871094	7689.684082	35.324547
464.116486	1404.905396	18641.621094	7533.448730	35.555172
464.473267	1399.055176	18194.984375	7406.015137	35.764378
464.830048	1397.205444	17837.132813	7316.670410	36.006634
465.186737	1396.474243	17553.250000	7240.487793	36.170670
465.543457	1391.742432	17325.523438	7195.450195	36.423923
465.900085	1392.796265	17206.626953	7187.190918	36.641308
466.256683	1391.161621	17162.019531	7209.817383	36.894985
466.613251	1393.592041	17192.710938	7257.565430	37.115826
466.969757	1393.721069	17282.013672	7324.197266	37.326073
467.326233	1393.893066	17380.392578	7388.765137	37.499592
467.682678	1394.430908	17445.085938	7451.331543	37.736156
468.039093	1393.979248	17487.242188	7494.477051	37.907154
468.395416	1392.366089	17481.046875	7532.567383	38.164726
468.751740	1390.365723	17475.798828	7563.216797	38.375408
469.108032	1387.333130	17453.904297	7598.125000	38.656612
469.464233	1386.924561	17425.257813	7622.126953	38.876873
469.820435	1387.462158	17371.595703	7638.043945	39.104916
470.176575	1388.903198	17264.826172	7635.784668	39.348145
470.532715	1390.709839	17116.185547	7621.826660	39.624344
470.888763	1389.871094	16959.392578	7607.007324	39.931454
471.244751	1389.957153	16821.849609	7597.586426	40.225975
471.600769	1388.838745	16735.945313	7604.254395	40.498940
471.956696	1391.419800	16686.154297	7630.751953	40.793987
472.312592	1395.119141	16715.039063	7690.824707	41.094898
472.668457	1394.172852	16788.876953	7768.296387	41.404652
473.024292	1395.613892	16909.494141	7864.737793	41.698944
473.380035	1399.872437	16996.687500	7956.964355	42.041222
473.735779	1402.711548	17086.396484	8044.845703	42.350597
474.091492	1400.130615	17172.923828	8131.545410	42.677383
474.447113	1398.689453	17280.419922	8229.772461	43.012207
474.802765	1400.238159	17379.853516	8322.858398	43.321571
475.158295	1401.227417	17497.501953	8425.257813	43.637615
475.513824	1401.205811	17608.527344	8532.347656	43.999508
475.869324	1400.495972	17745.513672	8650.297852	44.354813
476.224762	1399.420532	17873.398438	8766.247070	44.717957
476.580170	1401.743408	17999.607422	8886.218750	45.093006
476.935516	1402.668335	18130.783203	9014.729492	45.504593
477.290863	1401.721924	18340.294922	9167.393555	45.846085
477.646118	1399.807739	18551.289063	9327.434570	46.221241
478.001373	1403.163208	18806.695313	9517.802734	46.626396
478.356537	1404.561279	19087.570313	9707.482422	46.954227
478.711700	1408.927368	19371.455078	9906.173828	47.305405
479.066833	1412.863281	19646.175781	10109.102539	47.694237
479.421875	1416.003418	19939.740234	10319.794922	48.066929
479.776917	1418.713501	20251.736328	10544.961914	48.458752
480.131897	1422.756958	20583.023438	10789.595703	48.886791
480.486847	1425.187378	20960.789063	11049.025391	49.263073
480.841766	1427.617798	21395.488281	11353.385742	49.708691
481.196594	1431.403198	21904.089844	11701.106445	50.162945
481.551453	1438.608521	22567.785156	12128.278320	50.591988
481.906219	1446.028809	23387.111328	12649.222656	51.060349
482.260986	1455.320190	24480.345703	13323.350586	51.544048
482.615662	1465.364380	26038.882813	14261.250977	52.071857
482.970306	1480.312500	28242.232422	15585.824219	52.707397
483.324951	1502.057129	31073.486328	17369.720703	53.658764
483.679504	1528.103394	34178.042969	19461.658203	54.926762
484.034027	1552.192261	37240.316406	21542.412109	56.013649
484.388519	1577.485840	40007.261719	23392.404297	56.765663
484.742981	1599.682007	42335.035156	24900.117188	57.199543
485.097351	1615.727051	44198.640625	26113.105469	57.528656
485.451721	1625.018677	45581.304688	27047.414063	57.835629
485.806030	1633.750732	46583.941406	27753.417969	58.108025
486.160309	1640.482788	47246.304688	28304.818359	58.466957
486.514557	1645.494263	47545.160156	28664.435547	58.865227
486.868744	1646.569580	47432.246094	28790.126953	59.283951
487.222931	1643.171387	46820.234375	28546.355469	59.550537
487.577026	1636.890991	45926.082031	28035.732422	59.605606
487.931122	1628.933105	44990.953125	27476.587891	59.608971
488.285126	1619.964111	44104.308594	27000.701172	59.741386
488.639099	1612.952637	43301.371094	26638.613281	60.030247
488.993042	1607.553955	42603.714844	26373.138672	60.409519
489.346954	1604.542969	42024.195313	26178.685547	60.797512
489.700836	1601.617676	41487.574219	26009.824219	61.194988
490.054626	1597.423828	40928.410156	25819.564453	61.585392
490.408417	1590.670044	40378.378906	25615.408203	61.939053
490.762146	1584.217896	39816.289063	25425.818359	62.360210
491.115814	1583.056274	39386.949219	25340.517578	62.843952
491.469513	1578.711670	39061.570313	25293.929688	63.269505
491.823090	1576.281250	38661.800781	25200.326172	63.701534
492.176666	1572.173340	38210.628906	25071.687500	64.138931
492.530182	1567.678101	37734.078125	24932.832031	64.604591
492.883698	1562.967896	37229.519531	24748.250000	65.005676
493.237091	1558.687622	36680.738281	24538.587891	65.428696
493.590515	1550.321045	36093.078125	24274.386719	65.785324
493.943878	1543.266479	35411.636719	23934.341797	66.112053
494.297150	1537.846558	34507.351563	23457.724609	66.485313
494.650452	1529.049683	33330.281250	22785.169922	66.840561
495.003662	1512.875488	31807.943359	21861.892578	67.169403
495.356873	1500.314941	30131.712891	20827.076172	67.501984
495.710022	1487.066040	28584.187500	19881.068359	67.881760
496.063110	1476.828247	27306.437500	19123.228516	68.318497
496.416168	1468.074341	26367.935547	18575.699219	68.705704
496.769165	1463.084473	25714.408203	18232.626953	69.148979
497.122162	1457.449463	25311.005859	18041.611328	69.524902
497.475098	1456.632202	25029.080078	17949.279297	69.965782
497.828003	1456.223511	24893.019531	17948.570313	70.369461
498.180847	1454.029785	24823.205078	17989.820313	70.758980
498.533661	1454.416870	24769.218750	18033.093750	71.107948
498.886444	1453.621094	24713.750000	18080.412109	71.481941
499.239136	1451.964966	24632.236328	18111.275391	71.868484
499.591827	1449.900269	24482.648438	18081.080078	72.206665
499.944427	1449.039795	24238.423828	17983.001953	72.551163
500.297089	1446.007202	23928.687500	17833.091797	72.887596
500.649628	1444.630615	23578.921875	17643.304688	73.183609
501.002136	1440.371948	23203.154297	17435.064453	73.495621
501.354584	1437.532837	22852.552734	17254.095703	73.857330
501.707001	1434.156250	22491.947266	17062.029297	74.214211
502.059387	1432.005371	22181.478516	16908.804688	74.588875
502.411682	1429.747070	21899.015625	16769.347656	74.939659
502.764038	1429.531982	21673.394531	16661.505859	75.242424
503.116302	1429.575073	21490.425781	16586.529297	75.554886
503.468475	1428.370605	21362.968750	16558.351563	75.898102
503.820709	1427.445679	21297.326172	16569.580078	76.206467
504.172852	1427.768433	21260.976563	16596.851563	76.483253
504.524902	1425.101440	21239.255859	16645.246094	76.814507
504.876953	1428.177124	21248.654297	16703.791016	77.069862
505.228912	1427.918945	21261.386719	16758.250000	77.295258
505.580872	1427.553345	21280.679688	16812.451172	77.493576
505.932770	1426.391968	21267.861328	16845.228516	77.710159
506.284698	1425.209106	21266.160156	16877.876953	77.882698
506.636505	1425.660645	21272.806641	16923.751953	78.087257
506.988342	1423.789551	21269.794922	16955.476563	78.261024
507.340088	1424.671387	21276.398438	17001.914063	78.467949
507.691772	1424.456177	21279.777344	17037.142578	78.632256
508.043396	1423.681763	21298.380859	17111.173828	78.931976
508.395050	1425.337769	21345.074219	17189.937500	79.140602
508.746582	1426.262695	21429.212891	17291.173828	79.312859
509.098114	1426.929565	21563.166016	17418.888672	79.418808
509.449646	1429.446045	21709.593750	17563.832031	79.557533
509.801086	1431.080688	21892.970703	17736.585938	79.687187
510.152557	1433.403442	22072.626953	17909.705078	79.830048
510.503906	1433.640137	22255.166016	18088.154297	79.987000
510.855194	1437.210449	22443.490234	18265.939453	80.112846
511.206482	1438.801880	22627.857422	18433.445313	80.204819
511.557709	1440.243042	22821.171875	18625.361328	80.375923
511.908844	1445.340332	23011.128906	18792.218750	80.437027
512.260010	1446.136230	23173.730469	18934.410156	80.488770
512.611206	1446.588013	23288.087891	19050.361328	80.597824
512.962219	1449.663574	23368.722656	19133.638672	80.678528
513.313232	1450.394897	23425.783203	19196.591797	80.754875
513.664246	1450.932617	23455.679688	19233.480469	80.812325
514.015137	1450.760620	23457.228516	19255.310547	80.905991
514.366028	1453.728638	23439.097656	19256.794922	80.976883
514.716919	1452.115356	23387.007813	19228.279297	81.040581
515.067688	1450.416138	23307.533203	19176.357422	81.099174
515.418396	1449.555786	23222.382813	19120.607422	81.161034
515.769104	1448.136353	23144.609375	19069.914063	81.219551
516.119812	1450.093506	23090.453125	19036.142578	81.265053
516.470459	1450.050537	23097.982422	19076.298828	81.422318
516.821106	1450.824829	23162.376953	19166.570313	81.595940
517.171631	1453.126221	23358.894531	19348.914063	81.694405
517.522095	1457.212769	23642.285156	19600.580078	81.781868
517.872559	1461.062622	24070.144531	19962.388672	81.831390
518.222961	1464.977173	24575.886719	20382.332031	81.854652
518.573364	1469.493896	25124.449219	20850.884766	81.933746
518.923645	1476.312012	25645.048828	21295.283203	82.002510
519.273987	1481.818115	26105.107422	21676.361328	82.013992
519.624207	1483.925903	26452.355469	21965.625000	82.030388
519.974487	1483.646362	26733.636719	22206.169922	82.069435
520.324646	1484.850708	26895.742188	22331.173828	82.036957
520.674744	1483.000977	26977.429688	22385.310547	81.987747
521.024780	1481.710449	26911.783203	22332.896484	81.994202
521.374878	1480.419922	26728.537109	22183.716797	81.999367
521.724792	1477.086060	26432.779297	21943.666016	82.011665
522.074707	1472.505005	26056.068359	21642.251953	82.045662
522.424744	1468.870117	25661.351563	21310.554688	82.015915
522.774536	1464.095459	25332.281250	21033.251953	81.988457
523.124329	1462.159668	25042.888672	20798.642578	82.001205
523.474182	1458.589478	24903.343750	20680.820313	81.989471
523.823914	1461.815674	24869.898438	20657.851563	82.006012
524.173523	1463.321167	24982.623047	20741.796875	81.968742
524.523132	1467.084961	25229.251953	20955.070313	82.012650
524.872803	1469.020630	25632.398438	21292.123047	82.037796
525.222290	1474.118042	26245.767578	21794.593750	82.031181
525.571777	1480.118896	26965.470703	22375.460938	81.989616
525.921326	1488.958740	27765.914063	23024.875000	81.957428
526.270752	1495.389526	28603.373047	23717.541016	81.976410
526.620178	1505.949951	29496.150391	24451.738281	81.977936
526.969482	1513.800415	30569.894531	25328.429688	81.960876
527.318787	1527.286011	31845.470703	26373.181641	81.950470
527.668030	1539.803589	33489.312500	27752.769531	82.044975
528.017212	1559.289917	35522.765625	29520.064453	82.326012
528.366394	1579.442871	37770.765625	31525.798828	82.744568
528.715515	1603.768677	39934.906250	33467.761719	83.128220
529.064636	1620.781616	41741.433594	35062.453125	83.352760
529.413635	1635.256348	43115.664063	36276.582031	83.512497
529.762695	1642.827271	44061.628906	37088.960938	83.562317
530.111633	1649.752686	44697.285156	37631.671875	83.586487
530.460510	1649.731201	44978.562500	37873.765625	83.602615
530.809387	1647.408325	44862.527344	37796.402344	83.648949
531.158142	1642.504639	44333.128906	37369.101563	83.687218
531.506958	1635.901611	43292.691406	36490.886719	83.671799
531.855652	1623.814087	41803.566406	35185.066406	83.527771
532.204407	1609.554199	40108.777344	33636.125000	83.187576
532.552979	1591.637939	38622.894531	32246.576172	82.781250
532.901611	1580.238647	37507.550781	31231.007813	82.529884
533.250183	1573.549683	36804.671875	30585.318359	82.346992
533.598755	1566.581299	36351.496094	30180.363281	82.259171
533.947205	1563.010864	35978.953125	29848.900391	82.188332
534.295593	1561.505371	35663.878906	29589.125000	82.186707
534.643982	1561.634399	35411.527344	29366.392578	82.141342
534.992249	1567.914795	35183.628906	29186.779297	82.160576
535.340576	1561.526855	34984.875000	29027.445313	82.175842
535.688843	1556.752075	34779.281250	28864.435547	82.196289
536.037048	1552.041748	34511.781250	28644.320313	82.198105
536.385315	1550.880371	34046.386719	28270.576172	82.225815
536.733398	1545.288208	33382.691406	27712.894531	82.191399
537.081421	1536.878540	32527.445313	27013.001953	82.206055
537.429443	1531.695190	31672.181641	26326.318359	82.263512
537.777466	1528.555054	30902.644531	25695.226563	82.272072
538.125427	1524.640625	30244.908203	25157.224609	82.285393
538.473267	1519.865723	29722.843750	24729.126953	82.293655
538.821167	1509.907471	29287.111328	24377.300781	82.324318
539.169006	1508.853638	28941.242188	24090.039063	82.315781
539.516846	1508.401978	28654.732422	23846.482422	82.287659
539.864502	1509.240723	28495.763672	23712.402344	82.275002
540.212219	1507.928833	28504.111328	23716.037109	82.263885
540.559875	1511.520630	28838.193359	24005.382813	82.314674
540.907410	1519.500122	29597.880859	24630.625000	82.309319
541.254944	1530.125000	30617.769531	25477.587891	82.328644
541.602478	1536.168823	31697.882813	26386.001953	82.388664
541.949951	1542.857910	32720.099609	27223.591797	82.370125
542.297363	1549.718872	33602.207031	27962.906250	82.406044
542.644714	1555.117310	34395.015625	28617.398438	82.406715
542.992126	1562.107544	35014.703125	29131.761719	82.414101
543.339355	1564.710083	35429.875000	29487.564453	82.453026
543.686646	1564.580933	35497.582031	29538.281250	82.438042
544.033813	1562.494873	35207.761719	29296.017578	82.429199
544.380920	1554.149536	34458.527344	28676.626953	82.428169
544.728027	1542.900757	33316.277344	27726.125000	82.406174
545.075134	1530.189575	31969.875000	26611.148438	82.395592
545.422180	1519.500000	30666.382813	25516.130859	82.330009
545.769165	1509.111694	29513.033203	24560.849609	82.316109
546.116150	1500.379395	28531.037109	23737.500000	82.266296
546.463013	1491.259888	27665.556641	23014.982422	82.232285
546.809875	1481.581543	26966.525391	22430.669922	82.201820
547.156677	1477.903564	26331.867188	21895.013672	82.148308
547.503418	1472.526611	25801.994141	21459.605469	82.151733
547.850098	1467.601318	25317.220703	21059.318359	82.146873
548.196777	1466.676270	24898.181641	20708.437500	82.119186
548.543396	1465.321411	24474.513672	20358.675781	82.112198
548.890015	1459.385132	24032.888672	19983.316406	82.060509
549.236633	1453.341309	23521.126953	19576.599609	82.125404
549.583069	1448.588013	22973.126953	19126.714844	82.130104
549.929504	1444.006836	22375.375000	18630.824219	82.110336
550.275879	1438.049072	21767.470703	18125.707031	82.086243
550.622253	1435.747925	21120.251953	17594.759766	82.090012
550.968567	1428.047974	20528.802734	17118.679688	82.146660
551.314819	1424.520630	20002.304688	16686.324219	82.150833
551.661072	1421.982788	19598.126953	16350.605469	82.133057
552.007263	1416.218628	19304.757813	16117.288086	82.181496
552.353394	1411.852417	19120.906250	15956.365234	82.130371
552.699524	1410.153442	19001.708984	15850.825195	82.088661
553.045593	1407.249756	18950.607422	15809.400391	82.094604
553.391602	1407.701294	18928.796875	15788.191406	82.075294
553.737549	1407.895020	18905.654297	15775.975586	82.113823
554.083435	1408.690796	18871.564453	15745.069336	82.096336
554.429321	1405.744263	18837.603516	15703.967773	82.023514
554.775146	1404.711792	18766.435547	15638.991211	81.986549
555.120972	1401.593018	18699.888672	15581.199219	81.971123
555.466675	1400.001465	18572.431641	15485.100586	82.021591
555.812439	1400.861816	18412.195313	15345.469727	81.972450
556.158081	1400.431641	18199.246094	15188.440430	82.077271
556.503662	1400.495972	17978.443359	15007.903320	82.081375
556.849182	1400.818848	17754.201172	14807.941406	81.983788
557.194702	1397.764648	17537.119141	14627.727539	81.973312
557.540161	1393.140381	17350.515625	14465.296875	81.919212
557.885620	1390.774414	17176.365234	14321.019531	81.911697
558.231018	1387.849243	17019.054688	14200.490234	81.968346
558.576355	1386.472778	16895.041016	14088.562500	81.903694
558.921692	1386.365356	16771.951172	13987.647461	81.903168
559.266968	1382.923950	16670.603516	13898.431641	81.866631
559.612183	1381.353882	16585.216797	13820.616211	81.816460
559.957336	1378.815918	16526.220703	13760.652344	81.742294
560.302429	1376.493164	16485.611328	13727.678711	81.746567
560.647522	1377.073975	16465.630859	13707.247070	81.718704
560.992554	1376.149170	16452.361328	13690.707031	81.682037
561.337524	1375.396362	16454.466797	13682.792969	81.619064
561.682434	1376.772827	16478.041016	13694.858398	81.569878
562.027344	1379.590332	16486.343750	13690.836914	81.494980
562.372253	1380.256958	16492.281250	13684.900391	81.422867
562.717102	1381.052856	16496.431641	13682.040039	81.380608
563.061829	1383.289551	16506.345703	13679.545898	81.308006
563.406494	1382.923950	16506.863281	13666.618164	81.220200
563.751160	1383.010132	16487.873047	13650.250000	81.213844
564.095825	1383.805908	16480.019531	13646.850586	81.232590
564.440369	1381.052856	16470.945313	13643.883789	81.265198
564.784973	1381.547485	16486.128906	13658.250977	81.278015
565.129456	1383.504761	16545.621094	13712.128906	81.312027
565.473877	1381.934692	16631.501953	13779.363281	81.296921
565.818298	1379.418335	16780.574219	13890.752930	81.236336
566.162659	1381.225098	16958.230469	14036.834961	81.245453
566.507019	1383.117676	17142.789063	14178.122070	81.188263
566.851196	1382.623047	17304.982422	14312.956055	81.208649
567.195435	1384.924316	17465.066406	14444.735352	81.217010
567.539612	1386.128784	17583.642578	14541.953125	81.221260
567.883789	1387.870972	17669.867188	14599.315430	81.141426
568.227844	1390.107666	17720.433594	14632.803711	81.092659
568.571960	1392.796143	17746.607422	14636.374023	80.981598
568.915955	1391.957397	17702.988281	14598.884766	80.969299
569.259888	1392.301514	17641.583984	14555.415039	81.007355
569.603821	1394.624390	17538.859375	14475.920898	81.027664
569.947632	1393.140259	17414.093750	14369.264648	80.994705
570.291504	1390.537842	17301.820313	14278.006836	80.995789
570.635193	1388.817261	17230.070313	14219.246094	80.993774
570.979004	1387.720337	17189.140625	14193.285156	81.040596
571.322632	1388.387207	17251.921875	14239.356445	81.009491
571.666321	1386.881348	17348.537109	14323.389648	81.047401
572.009949	1388.752686	17484.488281	14434.456055	81.050682
572.353455	1388.688110	17614.806641	14555.202148	81.143951
572.696960	1392.903809	17731.423828	14660.159180	81.202316
573.040405	1395.269653	17836.578125	14743.030273	81.184296
573.383850	1396.302246	17900.994141	14801.081055	81.217995
573.727173	1397.678589	17957.580078	14855.496094	81.267494
574.070557	1398.667969	17983.669922	14884.252930	81.311928
574.413879	1400.474731	18000.898438	14900.318359	81.322281
574.757019	1398.560425	18007.070313	14904.362305	81.318565
575.100281	1398.409912	17948.935547	14863.840820	81.359535
575.443420	1397.850586	17855.351563	14792.843750	81.391418
575.786499	1394.968628	17718.580078	14695.886719	81.482689
576.129517	1395.011597	17557.830078	14582.839844	81.593620
576.472534	1395.269653	17409.726563	14463.167969	81.600632
576.815491	1393.376953	17219.445313	14326.183594	81.718376
577.158447	1392.839355	17037.873047	14200.190430	81.862091
577.501343	1389.634644	16846.281250	14057.741211	81.958961
577.844116	1385.655518	16634.621094	13900.691406	82.071373
578.187012	1383.182129	16399.818359	13723.700195	82.178970
578.529724	1380.321533	16122.384766	13519.589844	82.344429
578.872375	1377.310425	15831.832031	13301.131836	82.491982
579.215027	1374.062622	15551.066406	13087.319336	82.621529
579.557617	1371.159058	15267.546875	12872.584961	82.765579
579.900146	1368.104980	15013.774414	12669.634766	82.821358
580.242676	1364.362549	14763.677734	12482.944336	82.978729
580.585144	1363.910889	14546.577148	12318.214844	83.096268
580.927612	1360.620117	14349.434570	12166.968750	83.197342
581.269958	1358.254272	14169.499023	12039.319336	83.372581
581.612305	1359.136108	14031.352539	11945.480469	83.539803
581.954590	1358.017700	13892.000977	11853.188477	83.733719
582.296814	1359.329712	13789.235352	11780.104492	83.836311
582.639038	1358.168335	13691.159180	11717.730469	83.998779
582.981140	1360.641724	13596.156250	11659.165039	84.169106
583.323242	1364.212036	13520.319336	11610.320313	84.287743
583.665283	1361.824707	13440.610352	11567.261719	84.490593
584.007324	1359.243652	13378.174805	11538.118164	84.690346
584.349304	1357.071411	13312.359375	11501.854492	84.856033
584.691284	1355.264771	13251.771484	11467.592773	85.002502
585.033142	1354.447388	13186.343750	11431.373047	85.167458
585.374939	1354.253906	13123.582031	11397.842773	85.336975
585.716736	1352.533203	13080.458984	11381.086914	85.510040
586.058411	1353.329102	13023.613281	11354.524414	85.697960
586.400085	1354.124878	12978.125000	11335.641602	85.869896
586.741760	1351.285889	12935.324219	11324.628906	86.095566
587.083374	1348.253174	12922.503906	11336.437500	86.296593
587.424988	1348.167114	12903.749023	11337.856445	86.449036
587.766541	1346.360352	12895.706055	11353.019531	86.642647
588.107971	1346.166748	12910.008789	11389.604492	86.852081
588.449341	1346.747559	12925.581055	11420.683594	87.003021
588.790710	1346.941162	12962.487305	11476.497070	87.206886
589.132080	1345.693604	12993.931641	11527.813477	87.413391
589.473267	1348.984375	13041.616211	11591.565430	87.598595
589.814514	1347.392700	13090.913086	11658.155273	87.799591
590.155762	1346.424927	13151.329102	11727.517578	87.938812
590.496948	1348.704834	13191.547852	11789.030273	88.157257
590.838013	1348.102661	13204.711914	11820.453125	88.325005
591.179077	1349.005981	13229.359375	11861.963867	88.490280
591.520081	1350.704956	13229.360352	11878.761719	88.630035
591.861023	1352.339600	13208.475586	11872.482422	88.731628
592.201965	1351.930908	13188.343750	11873.256836	88.889481
592.542847	1353.264526	13146.706055	11852.437500	89.025520
592.883606	1353.716187	13099.450195	11832.348633	89.212242
593.224365	1352.468628	13047.250000	11805.227539	89.379684
593.565125	1352.511597	13016.602539	11792.945313	89.509193
593.905823	1353.823730	12999.008789	11792.772461	89.641762
594.246521	1353.350464	12995.803711	11803.742188	89.761078
594.587097	1354.942139	13030.777344	11843.274414	89.829399
594.927612	1354.017334	13055.768555	11890.763672	90.044182
595.268127	1354.985229	13121.110352	11962.622070	90.154037
595.608582	1350.597534	13227.984375	12066.957031	90.224892
595.948975	1350.877075	13347.805664	12195.037109	90.391136
596.289307	1352.597656	13530.000000	12375.962891	90.523125
596.629700	1353.845093	13753.403320	12587.538086	90.597527
596.969971	1355.157104	13974.957031	12803.457031	90.716965
597.310242	1355.028198	14161.775391	12992.750000	90.871803
597.650391	1355.286255	14280.758789	13118.292969	91.006393
597.990540	1353.350464	14364.662109	13200.755859	91.054657
598.330627	1354.425903	14370.918945	13234.780273	91.271545
598.670654	1356.727295	14358.681641	13223.896484	91.272194
599.010620	1355.845459	14279.640625	13166.621094	91.387825
599.350525	1358.834961	14147.237305	13070.113281	91.577339
599.690491	1358.985474	13981.238281	12932.806641	91.693787
600.030334	1356.426147	13756.113281	12736.417969	91.776443
600.370178	1354.576416	13481.950195	12489.784180	91.818787
600.710022	1352.210449	13190.322266	12227.127930	91.863625
601.049683	1351.221191	12926.418945	11984.752930	91.864792
601.389343	1349.005859	12712.930664	11795.698242	91.928558
601.728943	1349.220947	12547.619141	11652.196289	92.004013
602.068542	1346.145386	12447.219727	11561.970703	92.025558
602.408081	1343.714966	12407.515625	11534.397461	92.108337
602.747498	1347.392822	12457.952148	11576.273438	92.064499
603.087036	1349.758667	12558.715820	11667.574219	92.049736
603.426453	1349.027344	12710.046875	11805.828125	92.041039
603.765869	1350.661987	12902.652344	11987.700195	92.079704
604.105103	1350.833984	13132.744141	12217.834961	92.234627
604.444336	1352.103027	13408.628906	12482.277344	92.316597
604.783569	1354.791504	13683.350586	12749.128906	92.422302
605.122681	1358.039185	13923.790039	12980.833984	92.495827
605.461792	1360.362183	14122.050781	13175.052734	92.579369
605.800842	1361.910645	14273.315430	13315.025391	92.577965
606.139954	1362.641846	14346.141602	13386.153320	92.606087
606.478943	1359.931763	14330.636719	13388.906250	92.739555
606.817932	1356.813232	14249.227539	13332.511719	92.889496
607.156799	1358.340332	14120.008789	13223.639648	92.976082
607.495605	1357.071411	13942.028320	13067.534180	93.051277
607.834412	1356.512207	13730.906250	12869.508789	93.038864
608.173157	1356.963867	13487.928711	12645.802734	93.058044
608.511841	1357.523193	13275.150391	12451.090820	93.085373
608.850464	1356.813354	13123.109375	12318.322266	93.160233
609.189148	1357.222046	13038.905273	12229.837891	93.074051
609.527710	1357.178955	12987.802734	12190.199219	93.142212
609.866211	1356.619629	12966.853516	12185.639648	93.271324
610.204712	1356.576660	12970.832031	12193.877930	93.310333
610.543091	1358.921021	12985.652344	12203.447266	93.272354
610.881409	1359.200684	12981.887695	12203.061523	93.299088
611.219788	1358.555542	12962.636719	12186.413086	93.310768
611.558044	1359.222290	12924.590820	12153.893555	93.336166
611.896301	1357.071411	12848.300781	12091.886719	93.417465
612.234436	1355.092651	12720.778320	11974.430664	93.433327
612.572693	1350.468384	12538.434570	11804.237305	93.437614
612.910767	1346.295776	12311.265625	11599.954102	93.512871
613.248840	1345.951660	12067.795898	11372.743164	93.517410
613.586792	1344.962402	11823.615234	11142.692383	93.501816
613.924805	1343.112671	11590.983398	10922.557617	93.477417
614.262695	1339.284180	11367.793945	10717.414063	93.514694
614.600525	1335.563354	11181.536133	10539.542969	93.479637
614.938293	1333.627441	11017.816406	10385.609375	93.471764
615.276123	1329.906738	10869.152344	10248.582031	93.494553
615.613892	1329.584106	10751.783203	10134.998047	93.453918
615.951538	1328.035522	10640.694336	10037.996094	93.528183
616.289185	1328.014038	10566.943359	9964.396484	93.478172
616.626770	1327.411743	10496.353516	9901.291016	93.510017
616.964294	1326.013672	10445.938477	9852.790039	93.496124
617.301819	1323.604736	10407.267578	9813.129883	93.459274
617.639221	1323.153076	10378.189453	9793.623047	93.544296
617.976624	1321.325073	10362.853516	9775.535156	93.504211
618.313965	1324.164185	10346.486328	9761.511719	93.516365
618.651306	1327.497803	10337.819336	9755.123047	93.533012
618.988525	1329.605591	10326.570313	9753.422852	93.629547
619.325684	1329.433472	10320.224609	9746.261719	93.616104
619.662964	1331.111206	10312.611328	9741.809570	93.644691
620.000000	1331.605957	10289.296875	9725.162109	93.702232
620.337097	1329.842285	10270.563477	9707.332031	93.700394
620.674133	1327.670044	10244.667969	9689.630859	93.775513
621.011047	1330.035889	10211.373047	9669.649414	93.900429
621.347961	1329.648682	10182.379883	9638.678711	93.858383
621.684875	1331.390747	10146.871094	9610.804688	93.919037
622.021729	1329.863770	10114.371094	9577.852539	93.892433
622.358521	1329.132324	10068.881836	9539.590820	93.943863
622.695313	1327.325684	10045.352539	9508.210938	93.838722
623.031982	1326.551514	10015.541992	9483.970703	93.882240
623.368652	1324.529785	9991.561523	9454.956055	93.808662
623.705261	1323.712402	9977.149414	9443.750977	93.835991
624.041748	1326.443970	9965.019531	9439.125977	93.912270
624.378296	1330.057373	9964.589844	9433.835938	93.853127
624.714722	1329.777710	9987.903320	9447.858398	93.762558
625.051147	1331.756470	10010.014648	9469.991211	93.777290
625.387512	1333.520142	10059.138672	9506.317383	93.664391
625.723877	1334.358887	10114.349609	9569.809570	93.797951
626.060120	1332.380249	10206.467773	9652.292969	93.755135
626.396301	1335.004150	10316.202148	9752.649414	93.725197
626.732483	1338.079956	10427.527344	9856.038086	93.712608
627.068604	1340.488770	10542.659180	9962.545898	93.695908
627.404724	1345.156006	10649.726563	10058.536133	93.646233
627.740662	1346.575562	10744.706055	10141.062500	93.576981
628.076721	1345.392578	10811.510742	10208.339844	93.628105
628.412720	1344.360107	10847.579102	10238.967773	93.595734
628.748596	1344.058960	10864.636719	10259.314453	93.641960
629.084473	1344.790161	10857.860352	10256.044922	93.673805
629.420227	1344.058960	10822.523438	10226.019531	93.706749
629.755981	1344.381592	10759.699219	10167.862305	93.714104
630.091675	1345.285034	10655.600586	10074.065430	93.753860
630.427307	1343.714966	10541.219727	9968.847656	93.776878
630.762939	1340.768311	10419.979492	9859.393555	93.825607
631.098450	1338.208862	10297.727539	9745.316406	93.834366
631.434021	1338.208862	10185.499023	9641.560547	93.851921
631.769470	1335.197754	10085.313477	9539.483398	93.762024
632.104980	1333.240479	9990.163086	9451.020508	93.772125
632.440308	1331.627441	9907.851563	9367.417969	93.698463
632.775635	1330.315430	9827.433594	9290.828125	93.684853
633.110901	1330.401489	9767.102539	9231.551758	93.652130
633.446106	1330.788574	9724.925781	9190.600586	93.634552
633.781250	1328.100098	9693.135742	9160.167969	93.628632
634.116394	1329.304565	9672.036133	9134.078125	93.551773
634.451538	1330.186401	9660.164063	9117.214844	93.481987
634.786560	1329.261597	9636.849609	9090.610352	93.424812
635.121582	1326.723511	9609.641602	9060.950195	93.375626
635.456543	1329.820679	9574.928711	9034.172852	93.441490
635.791443	1334.122437	9539.719727	9002.987305	93.458939
636.126221	1333.455688	9498.402344	8967.111328	93.493027
636.461060	1330.294067	9459.751953	8933.752930	93.529716
636.795776	1328.336792	9411.875000	8884.369141	93.474319
637.130493	1327.261353	9340.318359	8814.382813	93.436516
637.465210	1329.089478	9269.083984	8739.921875	93.335487
637.799805	1327.562378	9190.750977	8666.623047	93.334412
638.134399	1325.196655	9101.235352	8585.408203	93.366455
638.468933	1324.400757	9013.999023	8510.560547	93.452995
638.803345	1324.099731	8930.870117	8438.530273	93.527611
639.137756	1322.357422	8856.818359	8372.628906	93.573669
639.472168	1320.937988	8790.487305	8312.384766	93.599312
639.806519	1319.582886	8721.060547	8249.108398	93.623543
640.140747	1319.797974	8648.619141	8184.347168	93.665123
640.474976	1320.142090	8578.417969	8118.662109	93.665771
640.809204	1321.066895	8510.150391	8065.300293	93.812141
641.143372	1321.023926	8444.959961	8013.401367	93.942131
641.477478	1320.658325	8379.188477	7957.373047	94.024033
641.811462	1321.798340	8318.385742	7900.032715	94.020615
642.145447	1322.206909	8273.305664	7855.726074	93.992607
642.479370	1321.647583	8229.859375	7807.247070	93.882462
642.813293	1321.346558	8179.572266	7755.390137	93.814987
643.147095	1318.873169	8133.115234	7713.944824	93.848610
643.480957	1319.862427	8095.455078	7681.982910	93.897621
643.814758	1322.593872	8059.644043	7646.172363	93.862717
644.148438	1322.809082	8031.532715	7616.792480	93.817894
644.482117	1322.593872	8010.153320	7584.208984	93.630798
644.815735	1320.400146	7981.741699	7554.678223	93.588928
645.149292	1319.002075	7963.890625	7540.246582	93.624512
645.482788	1318.636475	7946.726563	7530.632324	93.722267
645.816223	1318.098755	7929.542480	7515.469238	93.737022
646.149658	1321.884277	7921.261230	7506.176758	93.710251
646.483032	1322.830566	7925.670410	7514.585938	93.774124
646.816345	1325.002930	7925.347168	7510.155762	93.709549
647.149658	1325.712769	7925.153320	7512.221680	93.742928
647.482849	1323.067261	7931.089355	7511.360840	93.648201
647.816101	1323.690918	7933.498535	7516.543945	93.691879
648.149231	1325.583618	7934.251465	7523.061035	93.778015
648.482239	1325.562134	7940.402832	7529.598633	93.789658
648.815247	1325.282715	7940.918457	7526.157715	93.730598
649.148254	1326.250366	7943.090820	7516.651367	93.555237
649.481201	1326.723511	7939.155762	7510.650391	93.519699
649.814087	1323.475830	7926.875000	7508.370605	93.662285
650.146973	1323.949097	7914.399902	7493.186035	93.608727
650.479736	1322.873657	7914.377930	7488.326660	93.536354
650.812500	1323.820068	7909.216797	7477.637207	93.446419
651.145203	1324.185547	7898.226074	7479.335449	93.628113
651.477844	1325.045898	7892.375488	7475.807617	93.656967
651.810486	1322.529419	7888.052734	7470.129883	93.634583
652.143005	1322.421875	7879.083984	7462.687988	93.649269
652.475525	1322.830566	7875.061035	7455.698242	93.599693
652.807922	1321.389526	7863.532715	7454.665527	93.750259
653.140381	1321.131348	7854.090820	7444.020020	93.723045
653.472717	1322.206787	7835.443359	7424.533203	93.691154
653.805115	1322.744507	7811.312012	7407.477051	93.776207
654.137390	1323.303833	7778.468750	7380.699707	93.837975
654.469543	1322.292847	7743.497070	7345.362305	93.799690
654.801758	1323.992065	7706.976563	7309.831055	93.778061
655.133850	1322.938110	7666.024902	7273.761230	93.815887
655.465881	1323.798340	7628.988770	7236.123047	93.769173
655.797974	1326.874023	7598.726563	7205.968262	93.737762
656.129944	1328.723755	7561.474609	7170.587402	93.728493
656.461853	1331.111206	7537.429199	7140.174805	93.599190
656.793762	1330.465942	7519.620605	7122.904297	93.590141
657.125610	1329.476685	7518.437500	7117.312012	93.518692
657.457397	1330.100342	7528.761230	7121.656738	93.432381
657.789124	1327.884888	7549.730957	7149.401367	93.565742
658.120789	1325.863281	7595.220703	7192.482422	93.576080
658.452393	1325.712646	7671.316895	7258.964355	93.501762
658.783997	1325.906250	7765.521484	7342.522949	93.431305
659.115540	1325.024292	7877.062500	7454.171387	93.545654
659.447083	1322.099243	7988.430176	7566.335449	93.668259
659.778503	1323.475952	8102.724609	7681.187988	93.781960
660.109924	1322.895264	8201.403320	7778.943359	93.858261
660.441284	1327.067749	8284.660156	7850.671875	93.762375
660.772522	1329.347656	8343.678711	7910.873047	93.829697
661.103760	1328.401245	8376.391602	7939.435547	93.800278
661.434998	1329.067993	8385.361328	7941.607910	93.711243
661.766113	1332.659912	8352.733398	7915.604492	93.773155
662.097229	1332.573730	8281.864258	7854.306152	93.847458
662.428345	1334.746094	8188.197266	7763.240723	93.799377
662.759277	1336.638794	8055.599609	7636.451172	93.761711
663.090332	1339.757446	7920.400391	7505.531738	93.695618
663.421204	1336.617310	7777.931641	7368.095703	93.637390
663.752075	1336.230225	7635.720215	7238.273438	93.690804
664.082886	1333.584595	7499.488770	7121.011230	93.861771
664.413635	1332.401733	7379.345215	7004.781738	93.805740
664.744324	1331.347778	7271.783203	6904.770020	93.821777
665.075012	1333.627686	7177.986328	6820.607910	93.885078
665.405640	1333.477051	7108.106445	6746.061035	93.730415
665.736206	1333.971802	7047.948730	6683.816895	93.627350
666.066772	1332.638184	6992.845215	6642.607910	93.812286
666.397278	1331.175659	6956.948242	6602.818359	93.705223
666.727661	1328.895752	6917.653320	6564.748535	93.685440
667.058044	1331.648804	6889.562988	6540.144043	93.713127
667.388306	1331.068237	6871.109375	6514.570801	93.564331
667.718567	1330.874756	6853.817383	6496.590332	93.531952
668.048828	1331.842651	6843.343262	6490.847168	93.604355
668.378967	1334.186890	6841.342285	6491.750488	93.652046
668.709167	1333.907227	6841.601074	6491.104980	93.636246
669.039246	1334.165283	6841.170410	6493.858887	93.693275
669.369263	1335.434326	6843.127930	6495.772949	93.693283
669.699341	1336.638794	6839.643555	6487.621582	93.603096
670.029236	1335.993530	6832.223145	6485.255859	93.687180
670.359131	1335.735474	6828.630859	6484.201172	93.729546
670.688965	1335.993530	6818.565430	6471.038574	93.661247
671.018738	1338.402466	6799.423340	6451.573242	93.630310
671.348511	1339.563965	6785.142578	6440.367676	93.668716
671.678223	1340.617676	6766.085449	6416.020508	93.547745
672.007813	1339.284302	6734.426270	6390.834473	93.631462
672.337341	1339.714478	6704.465332	6357.001953	93.523216
672.666992	1340.596313	6671.987793	6327.299805	93.534744
672.996460	1339.822144	6636.758301	6296.779785	93.581604
673.325867	1340.768555	6604.001465	6267.851563	93.613243
673.655273	1343.693604	6570.578125	6238.148926	93.640007
673.984619	1346.166992	6531.841797	6204.166016	93.681137
674.314026	1346.769165	6501.708984	6179.905762	93.757385
674.643250	1347.457397	6475.360840	6165.021973	93.948036
674.972412	1348.102539	6445.852051	6136.373535	93.929115
675.301514	1346.123901	6418.300293	6110.456055	93.930725
675.630676	1348.425171	6399.007813	6086.431641	93.811089
675.959778	1348.726196	6375.133301	6065.546875	93.840797
676.288757	1346.769043	6355.583008	6046.125488	93.821739
676.617737	1347.994995	6330.139160	6022.401855	93.823196
676.946594	1345.564575	6317.104980	6004.593262	93.713989
677.275513	1346.769043	6303.340820	5991.215820	93.702805
677.604309	1348.296143	6301.619141	5982.978027	93.567116
677.933044	1348.339111	6297.081055	5980.159668	93.595909
678.261780	1347.371216	6302.092285	5982.181641	93.543320
678.590393	1346.725952	6318.115723	5997.194824	93.544647
678.919067	1347.736816	6339.990234	6023.865234	93.667686
679.247620	1350.597290	6369.906738	6049.738770	93.621277
679.576111	1354.576294	6414.687012	6087.614258	93.536255
679.904541	1357.888672	6464.951660	6128.888672	93.419640
680.232971	1360.211548	6527.389160	6187.240234	93.417122
680.561401	1367.094238	6579.482422	6240.945313	93.505142
680.889709	1368.986816	6631.660645	6288.047363	93.470749
681.217957	1370.320313	6676.612793	6331.429688	93.494835
681.546143	1373.030396	6715.370117	6363.713867	93.417564
681.874390	1376.299683	6754.256348	6394.727051	93.314758
682.202454	1380.837769	6781.851074	6420.945801	93.317825
682.530579	1384.322144	6789.357422	6428.323242	93.320412
682.858521	1385.376099	6781.614258	6417.354492	93.249748
683.186523	1385.913696	6746.879395	6392.641113	93.392265
683.514465	1386.193237	6701.539551	6357.562012	93.528595
683.842346	1388.881836	6645.490234	6300.242676	93.432121
684.170166	1386.279297	6579.826172	6233.460449	93.330841
684.497925	1386.472778	6514.226563	6174.141113	93.367752
684.825623	1385.655396	6446.218262	6104.390625	93.245262
685.153320	1384.773682	6370.703125	6042.038574	93.408150
685.481018	1383.354126	6294.414551	5967.921875	93.351891
685.808533	1384.106934	6218.426270	5898.601563	93.384285
686.136047	1385.784668	6154.891113	5837.776855	93.350655
686.463623	1386.774048	6099.916992	5795.685547	93.545044
686.791016	1387.526855	6063.267090	5760.541504	93.525612
687.118408	1389.634644	6037.909180	5731.441406	93.406845
687.445740	1388.042969	6019.132813	5723.009766	93.605759
687.772949	1389.613159	6015.045410	5720.815918	93.638878
688.100220	1391.161621	6012.099609	5715.955566	93.591255
688.427429	1396.474121	6003.087402	5717.160156	93.793114
688.754517	1399.270264	6008.249512	5709.997559	93.528893
689.081604	1402.259888	5999.280762	5705.266113	93.604233
689.408630	1401.657593	5991.171875	5695.479980	93.557228
689.735657	1402.023193	5971.492188	5680.338379	93.628288
690.062622	1401.377930	5948.737305	5653.259766	93.502220
690.389465	1403.141602	5917.722168	5621.922852	93.447914
690.716248	1404.238647	5876.018555	5585.638672	93.506393
691.043091	1406.045288	5826.141113	5532.707520	93.361374
691.369812	1407.744385	5769.511230	5480.636719	93.377129
691.696533	1407.658325	5708.041016	5421.381836	93.334099
692.023132	1403.399658	5655.582520	5372.429199	93.340996
692.349670	1401.700439	5592.693359	5320.465332	93.504448
692.676270	1403.227661	5541.073730	5275.879395	93.591003
693.002747	1403.378052	5492.959961	5226.755371	93.490662
693.329163	1403.313599	5450.717773	5180.254883	93.317619
693.655518	1405.593506	5407.400879	5144.035156	93.418831
693.981873	1404.389038	5364.772461	5110.353516	93.575897
694.308167	1406.260254	5326.423828	5079.876953	93.710800
694.634399	1406.195801	5301.151367	5052.453613	93.614876
694.960571	1406.604492	5276.309570	5031.418945	93.671593
695.286743	1409.400513	5256.242676	5018.664551	93.824074
695.612854	1414.239746	5242.563477	4996.898926	93.582970
695.938904	1418.713379	5237.853516	4986.080078	93.407585
696.264832	1420.197388	5241.918457	4986.424316	93.314682
696.590820	1425.208862	5250.500000	4995.608398	93.336678
696.916687	1428.047974	5274.652832	5020.213379	93.385353
697.242554	1430.822510	5313.324707	5052.797852	93.289719
697.568359	1435.919800	5373.332520	5101.470703	93.095421
697.894043	1442.802490	5455.772949	5174.232422	92.984238
698.219788	1451.663696	5556.581055	5268.050781	92.971107
698.545349	1459.578735	5674.015137	5371.310547	92.817436
698.870972	1470.827515	5799.234375	5484.400391	92.726334
699.196533	1477.903442	5917.076660	5594.779297	92.739700
699.521973	1484.678589	6021.197266	5696.791992	92.849030
699.847412	1493.948730	6108.326172	5774.156250	92.758072
700.172852	1502.121582	6172.678223	5835.433105	92.779335
700.498169	1510.208618	6207.930176	5865.371582	92.707985
700.823486	1514.832764	6215.135742	5872.296875	92.706024
701.148682	1517.456909	6188.142578	5849.003906	92.738998
701.473816	1518.682739	6122.328613	5786.351563	92.701935
701.799072	1518.897949	6019.906738	5691.135742	92.695618
702.124146	1515.607300	5893.568848	5576.239258	92.751656
702.449158	1510.832153	5747.744141	5441.878418	92.780930
702.774109	1510.466675	5599.274414	5306.830078	92.847687
703.099060	1508.014771	5460.439941	5171.329102	92.685226
703.424011	1501.906372	5323.562500	5049.701172	92.833961
703.748840	1494.937866	5198.386230	4933.062988	92.835777
704.073608	1492.292236	5088.071289	4829.781738	92.816872
704.398315	1489.216675	4990.511230	4738.909668	92.814041
704.723022	1488.506958	4912.694824	4661.222656	92.656006
705.047668	1487.194946	4849.225098	4601.258301	92.624489
705.372253	1486.958496	4791.949219	4551.768066	92.732773
705.696716	1489.560913	4742.028809	4506.902344	92.770828
706.021240	1486.377808	4705.701660	4470.855469	92.705109
706.345764	1486.076660	4678.321777	4440.120605	92.538132
706.670044	1489.023315	4652.834961	4418.482910	92.592728
706.994446	1493.626099	4636.037109	4400.330078	92.499168
707.318665	1498.056641	4628.853516	4387.253418	92.283112
707.642883	1500.013794	4621.927246	4379.940430	92.248764
707.967102	1503.326050	4619.539551	4376.349121	92.195961
708.291260	1507.907349	4620.271484	4374.563965	92.105438
708.615295	1511.757324	4613.496582	4371.015137	92.182404
708.939331	1514.875854	4623.369141	4377.016113	92.074844
709.263367	1517.671875	4634.337891	4382.844238	91.930687
709.587280	1525.285645	4649.156250	4393.210938	91.806786
709.911194	1529.910034	4660.512207	4407.341797	91.913048
710.234985	1534.168457	4682.300293	4425.666016	91.848045
710.558716	1538.620728	4706.905762	4448.529297	91.844910
710.882568	1546.449707	4732.435547	4473.844727	91.883492
711.206177	1551.869629	4761.234863	4503.869629	91.980804
711.529785	1558.451172	4791.948242	4534.476074	92.037346
711.853394	1566.322998	4811.542480	4559.812012	92.243034
712.176880	1571.054810	4837.051270	4579.943359	92.127731
712.500427	1575.356567	4848.170898	4591.923340	92.170425
712.823792	1581.636841	4854.945801	4599.214355	92.187370
713.147217	1587.981689	4857.269043	4602.526855	92.208023
713.470520	1594.068481	4847.482422	4598.935059	92.360413
713.793823	1596.627808	4831.975098	4586.460449	92.411491
714.117004	1599.639038	4813.134277	4568.329102	92.381966
714.440247	1599.165894	4789.754395	4544.971680	92.327972
714.763367	1603.875854	4761.858887	4515.849609	92.209923
715.086365	1608.371094	4733.424805	4482.555176	91.972313
715.409485	1608.629272	4712.583984	4455.584473	91.720253
715.732361	1610.801636	4689.419922	4433.539063	91.688454
716.055298	1614.780762	4668.600098	4412.525391	91.614609
716.378174	1617.232544	4652.146484	4397.534668	91.610573
716.700928	1617.490723	4631.476563	4379.962402	91.655098
717.023804	1617.533691	4612.958496	4359.271484	91.530853
717.346558	1623.104248	4589.815918	4334.150391	91.382195
717.669189	1625.040161	4560.134766	4301.974121	91.204353
717.991760	1629.470703	4523.679199	4268.249512	91.174454
718.314392	1629.169556	4482.189453	4234.739746	91.326744
718.636902	1627.621094	4440.808105	4196.907227	91.330086
718.959351	1629.341797	4385.704590	4153.353027	91.570358
719.281738	1630.244995	4331.891113	4104.013672	91.565239
719.604065	1629.642700	4277.132324	4054.050537	91.573830
719.926453	1629.685913	4219.189453	4002.667969	91.638496
720.248718	1630.782715	4167.097168	3952.382568	91.534386
720.570923	1631.535522	4116.423828	3905.215088	91.500282
720.893066	1628.094116	4070.225098	3862.564697	91.496765
721.215088	1627.599487	4024.885742	3827.441650	91.763863
721.537170	1624.631348	3983.074463	3790.856934	91.849815
721.859192	1624.695801	3953.220947	3760.616455	91.728477
722.181152	1625.448730	3915.560303	3731.472900	91.961639
722.503052	1625.964844	3889.772461	3707.233398	91.936638
722.824951	1626.739136	3870.092285	3687.940674	91.880394
723.146790	1625.857300	3852.434326	3672.648438	91.925453
723.468506	1624.373169	3838.518799	3655.721924	91.744141
723.790161	1624.953979	3823.914795	3643.613281	91.800598
724.111816	1626.889771	3815.247070	3631.288818	91.593773
724.433472	1631.427856	3805.503906	3624.191162	91.660233
724.755005	1636.890991	3800.771973	3614.813232	91.406242
725.076477	1641.708862	3796.147705	3612.727295	91.486389
725.397888	1646.956665	3793.975586	3607.629639	91.320709
725.719299	1652.613281	3796.771240	3606.877441	91.143669
726.040710	1656.097656	3798.341553	3608.877930	91.155830
726.361938	1660.291748	3797.567383	3612.921143	91.360672
726.683167	1668.808716	3805.762451	3618.189941	91.222443
727.004395	1676.659058	3811.676758	3627.481934	91.372688
727.325500	1686.273438	3822.968750	3637.160400	91.303940
727.646667	1695.306763	3836.905273	3657.937500	91.643257
727.967651	1702.640991	3852.821289	3671.702393	91.576576
728.288635	1711.201172	3870.888184	3692.564941	91.743095
728.609558	1721.976685	3887.062500	3706.200928	91.646446
728.930481	1729.267944	3898.289307	3719.191650	91.742920
729.251282	1736.430054	3910.721191	3729.364990	91.659073
729.572021	1742.646118	3921.582764	3733.731445	91.378769
729.892761	1749.743774	3928.292969	3735.000244	91.127449
730.213440	1756.110107	3928.594482	3738.527588	91.251175
730.534119	1766.390747	3936.121826	3744.313232	91.159805
730.854675	1771.036743	3941.284180	3743.990479	90.909157
731.175171	1775.725342	3945.972412	3745.904785	90.781342
731.495605	1783.597290	3952.231445	3755.153320	90.912331
731.816101	1788.436646	3954.468506	3751.066650	90.609474
732.136475	1790.307739	3957.630371	3752.400146	90.530701
732.456787	1797.340942	3961.308350	3757.347412	90.574684
732.777039	1803.900879	3962.813477	3764.402100	90.809662
733.097229	1807.621826	3969.911133	3772.058594	90.849861
733.417480	1813.644165	3973.847412	3782.834229	91.157631
733.737549	1815.558472	3973.825684	3784.232178	91.215485
734.057617	1816.268066	3964.921631	3775.177979	91.169182
734.377563	1818.461670	3945.822021	3765.885986	91.541817
734.697510	1819.666138	3920.313477	3742.205566	91.521278
735.017517	1818.268433	3893.535889	3713.427490	91.321190
735.337341	1818.719971	3861.488525	3687.295410	91.472694
735.657166	1820.462158	3826.151367	3655.872070	91.510185
735.976868	1816.547607	3791.652344	3623.050781	91.463661
736.296631	1813.084839	3753.604736	3582.895508	91.202911
736.616272	1813.213745	3716.202393	3547.622559	91.141312
736.935852	1811.278076	3682.929443	3509.058594	90.710297
737.255371	1811.815918	3650.839600	3478.366943	90.621513
737.574829	1811.643799	3622.341553	3455.030273	90.759842
737.894348	1811.407349	3606.791260	3442.297119	90.837944
738.213745	1814.203247	3598.833496	3435.995361	90.875526
738.533081	1817.063965	3588.465820	3429.693604	91.036919
738.852356	1821.601929	3593.047119	3429.500000	90.767586
739.171570	1827.516724	3600.704102	3436.619385	90.746338
739.490784	1835.560669	3604.403320	3438.425781	90.616600
739.809937	1843.583130	3611.028320	3452.019531	91.003464
740.129028	1851.089478	3604.791260	3451.954590	91.284912
740.447998	1855.305176	3598.725830	3452.857910	91.633232
740.767029	1858.983154	3595.972656	3442.620361	91.171371
741.085999	1862.682373	3588.423340	3430.425049	90.844612
741.404846	1864.101929	3573.109375	3413.390625	90.654297
741.723633	1863.327637	3551.988525	3392.032959	90.527664
742.042358	1861.714478	3528.221924	3368.804688	90.434052
742.361145	1858.617310	3494.196289	3341.962646	90.692368
742.679810	1856.509644	3461.418213	3311.743896	90.673965
742.998413	1852.638184	3425.457031	3282.922607	90.937645
743.316956	1846.250122	3390.420410	3250.123291	90.914398
743.635498	1841.324951	3362.674805	3221.496094	90.720169
743.953979	1838.141724	3338.628906	3195.213135	90.442055
744.272400	1836.464111	3308.108643	3171.920166	90.745834
744.590698	1833.302368	3283.417725	3149.486816	90.764122
744.909058	1829.388184	3260.339600	3129.204834	90.835831
745.227356	1827.409424	3239.820557	3107.030273	90.598328
745.545471	1826.742554	3222.097900	3088.188965	90.403236
745.863586	1825.409058	3203.257080	3071.047119	90.404602
746.181702	1820.806519	3183.792236	3057.862549	90.760750
746.499756	1820.118042	3175.942139	3043.237305	90.212234
746.817810	1822.569946	3166.972900	3031.128174	89.895538
747.135742	1823.430420	3161.961670	3025.815674	89.828705
747.453613	1824.548828	3153.874756	3018.223389	89.795479
747.771423	1827.086670	3149.702148	3015.040039	89.818497
748.089233	1829.581543	3145.250000	3012.136719	89.882462
748.406982	1837.389038	3144.432617	3012.287354	89.889755
748.724609	1841.045410	3145.271240	3019.191406	90.332977
749.042236	1846.572754	3143.980713	3028.590576	91.106102
749.359863	1850.121826	3147.078125	3034.892090	91.350052
749.677429	1858.208862	3152.046631	3039.258057	91.282631
749.994873	1863.779297	3154.154541	3043.151367	91.397606
750.312256	1868.812134	3155.143555	3043.861084	91.348846
750.629639	1872.103027	3156.003906	3044.936035	91.349190
750.946960	1880.189941	3156.842773	3047.065674	91.401176
751.264282	1882.168823	3154.025146	3046.420410	91.539551
751.581482	1887.266113	3152.132568	3046.420410	91.642426
751.898621	1888.406128	3150.110840	3040.742188	91.331673
752.215698	1892.427856	3147.938477	3036.182617	91.098770
752.532715	1894.256348	3147.615723	3031.364990	90.724869
752.849792	1898.020264	3148.476318	3025.385742	90.156342
753.166748	1901.031372	3146.454590	3024.331787	90.194275
753.483643	1904.773804	3142.066650	3025.041504	90.541840
753.800476	1906.128906	3139.851563	3026.783691	90.835228
754.117310	1911.591797	3139.421143	3028.999023	91.006721
754.434082	1912.387451	3135.506836	3028.031250	91.212990
754.750732	1916.517090	3139.636475	3031.450928	91.154945
755.067383	1920.689575	3141.378662	3034.827881	91.271263
755.383911	1923.765259	3137.077148	3036.290039	91.693222
755.700562	1925.507324	3139.120117	3034.612549	91.388725
756.016968	1927.314087	3137.313477	3029.924072	91.124840
756.333435	1931.400757	3130.818115	3030.805664	91.661583
756.649780	1933.981934	3129.010986	3028.310791	91.573410
756.966064	1936.562866	3129.484619	3029.450684	91.614372
757.282410	1940.885620	3129.742432	3031.601563	91.744934
757.598633	1945.940186	3132.732178	3033.945557	91.676163
757.914795	1951.403076	3138.883545	3042.419678	91.876595
758.230896	1957.575806	3146.303955	3049.388428	91.847122
758.546936	1962.092651	3158.283691	3059.841553	91.770363
758.862976	1970.932495	3168.198975	3069.132813	91.725639
759.178894	1979.664795	3177.253662	3081.220459	91.981117
759.494812	1988.332764	3188.308838	3096.555664	92.353752
759.810669	1994.247314	3199.622070	3114.127930	92.907257
760.126526	2002.269653	3208.569580	3128.215576	93.338806
760.442261	2008.829590	3214.806885	3138.775635	93.695465
760.757935	2013.389160	3224.119629	3144.948486	93.460876
761.073608	2015.905762	3225.711670	3148.605225	93.626541
761.389160	2018.207031	3227.905518	3147.551514	93.357521
761.704712	2024.917603	3230.164063	3152.347656	93.543526
762.020203	2029.025513	3229.217285	3156.197510	93.915993
762.335571	2033.348755	3242.917969	3167.984131	93.804916
762.650940	2045.221191	3264.253906	3191.449219	94.027664
762.966370	2069.826416	3312.926514	3236.314941	93.837059
763.281677	2110.368896	3394.571045	3315.249756	93.823303
763.596863	2154.266602	3499.401367	3413.068115	93.581818
763.911987	2199.627197	3606.425537	3510.306152	93.167511
764.227112	2239.911865	3690.006104	3597.091309	93.592499
764.542236	2273.378174	3756.508545	3661.356934	93.584404
764.857178	2297.596436	3808.837646	3710.331055	93.481743
765.172119	2311.985352	3837.636719	3740.506348	93.633514
765.487061	2324.567383	3858.413330	3758.788086	93.504875
765.801880	2333.579590	3864.199219	3767.929443	93.710403
766.116760	2329.127197	3845.895996	3751.303711	93.763565
766.431458	2312.781006	3798.449463	3707.749756	93.895027
766.746155	2276.217529	3709.492188	3622.965088	93.962982
767.060791	2232.878906	3593.026367	3508.736084	93.802856
767.375427	2185.518066	3471.462402	3395.216553	94.070831
767.689941	2143.964600	3367.729004	3292.709229	93.869751
768.004395	2109.250732	3278.169434	3209.881348	94.158012
768.318848	2084.258301	3200.246094	3140.302979	94.628693
768.633179	2062.449219	3138.819336	3079.800781	94.516891
768.947632	2041.629395	3083.199219	3028.138428	94.713669
769.261841	2020.831177	3027.923584	2974.432861	94.688599
769.576111	2006.678955	2983.724365	2929.373779	94.437248
769.890259	1989.106689	2941.031250	2888.788330	94.511864
770.204285	1975.750122	2907.843994	2853.170898	94.134377
770.518433	1961.920410	2873.883057	2825.231689	94.665199
770.832458	1952.607422	2845.836670	2796.797852	94.509941
771.146362	1943.423706	2820.134521	2768.536377	94.114578
771.460205	1933.056763	2796.303711	2743.673096	93.903183
771.774109	1919.915283	2772.106934	2722.788818	94.212791
772.087952	1911.527344	2752.814209	2703.668213	94.158234
772.401672	1906.257813	2728.961670	2681.106445	94.183174
772.715332	1899.999146	2712.916748	2663.190186	93.882950
773.028992	1892.600342	2696.527588	2648.844482	94.068726
773.342590	1889.029785	2679.643555	2631.272461	93.881828
773.656128	1883.308716	2663.641846	2611.076172	93.263687
773.969604	1882.491455	2651.618896	2595.396729	92.690140
774.283020	1878.211426	2633.035889	2583.223389	93.400787
774.596375	1872.275024	2618.776123	2572.770264	93.837135
774.909729	1869.930542	2604.322510	2560.145264	93.984512
775.223022	1867.220581	2592.988037	2547.176025	93.687782
775.536194	1863.198730	2577.394775	2535.518555	94.136597
775.849304	1855.670776	2568.318359	2525.130127	93.939751
776.162476	1850.422729	2556.790039	2518.957275	94.644035
776.475525	1848.530029	2546.122070	2507.063477	94.400940
776.788513	1845.002808	2538.701660	2500.868896	94.546227
777.101440	1843.153198	2527.668213	2495.406006	95.286850
777.414307	1839.561279	2518.742432	2489.685059	95.721703
777.727173	1836.227661	2514.161133	2483.383057	95.460014
778.039978	1838.034058	2506.654541	2479.339600	95.914734
778.352722	1836.076904	2499.858154	2472.327881	95.852509
778.665405	1835.302612	2495.126465	2464.025635	95.286491
778.977966	1834.872559	2493.212158	2463.702881	95.517624
779.290649	1836.442871	2491.233643	2460.777832	95.348770
779.603149	1840.034424	2487.964600	2452.648193	94.549347
779.915588	1839.238647	2485.254150	2452.346680	94.906090
780.227966	1840.120361	2478.371582	2448.776367	95.363075
780.540405	1838.744019	2478.543457	2447.378662	95.128975
780.852722	1835.496460	2476.543457	2441.463867	94.527763
781.164917	1834.592896	2467.983398	2433.548828	94.563454
781.477173	1832.033325	2461.509277	2422.579834	93.815582
781.789246	1829.624634	2456.046387	2419.031006	94.090981
782.101379	1827.323120	2448.131348	2414.213135	94.536446
782.413452	1823.838989	2439.441895	2400.512207	93.676170
782.725403	1822.591675	2429.354736	2392.382324	93.906616
783.037292	1816.784424	2421.999268	2386.360107	94.111320
783.349182	1815.794922	2409.911621	2374.466064	94.033905
783.661072	1809.579224	2401.222168	2365.497559	93.961792
783.972839	1804.868652	2387.263672	2354.054932	94.297897
784.284546	1804.739746	2378.101074	2343.774170	94.013039
784.596191	1801.664063	2370.938965	2333.450439	93.414688
784.907898	1797.104370	2363.884277	2324.416992	93.036575
785.219421	1795.104248	2357.883545	2315.362061	92.444374
785.530884	1795.211670	2350.872070	2308.716064	92.413353
785.842346	1793.276123	2343.709961	2302.521729	92.517136
786.153748	1790.522949	2338.892090	2296.521240	92.273300
786.465149	1789.232300	2331.643799	2291.896729	92.672157
786.776428	1784.156616	2330.697510	2289.961182	92.546516
787.087646	1785.490112	2327.385254	2287.767334	92.689003
787.398804	1789.339844	2330.976807	2292.176514	92.836479
787.709961	1790.759644	2338.977783	2301.145264	93.098999
788.021057	1800.373535	2356.098389	2317.685059	93.087708
788.332031	1810.288696	2372.960693	2335.945557	93.421539
788.643005	1817.429565	2386.016113	2351.839844	93.989258
788.953918	1820.397583	2399.824219	2363.755371	93.775078
789.264832	1826.333862	2412.987061	2376.014893	93.697784
789.575623	1831.344971	2423.225098	2386.489258	93.793365
789.886353	1835.711304	2428.795898	2391.414551	93.697128
790.197083	1839.690308	2433.312500	2394.705566	93.496376
790.507690	1840.830200	2432.882080	2394.318359	93.486427
790.818359	1839.883667	2430.000244	2385.629150	92.480965
791.128845	1834.033569	2417.439453	2376.638428	93.006409
791.439331	1825.021606	2397.372314	2356.334961	92.830032
791.749756	1813.493408	2376.122314	2335.622559	92.801697
792.060120	1803.513794	2354.442139	2314.114502	92.680061
792.370483	1794.286987	2334.676270	2292.563477	92.206955
792.680786	1784.500732	2314.157715	2272.689941	92.170822
792.990967	1776.564331	2292.499023	2255.075195	92.746399
793.301086	1769.896606	2278.476074	2240.277588	92.489182
793.611267	1764.067993	2265.033447	2230.061279	93.019043
793.921326	1759.529785	2255.290039	2220.920410	93.067291
794.231323	1754.927246	2244.105713	2213.048096	93.651070
794.541260	1753.980835	2236.771729	2205.821533	93.589317
794.851074	1751.786743	2231.502197	2205.584961	94.597374
795.161011	1751.528931	2228.921143	2205.219482	95.035179
795.470764	1754.389404	2235.287354	2208.660645	94.463127
795.780518	1759.572754	2239.739990	2218.253418	95.525192
796.090149	1766.197388	2247.396729	2228.426514	96.057724
796.399780	1772.499268	2258.581055	2234.965088	95.141563
796.709412	1774.069214	2264.280518	2242.750977	95.608109
797.018860	1780.285156	2268.474609	2247.332275	95.669235
797.328308	1782.737061	2277.400635	2250.902344	94.643166
797.637756	1785.447144	2283.745361	2252.988770	93.827675
797.947205	1786.630005	2284.154053	2253.461914	93.831024
798.256470	1786.974121	2284.003662	2249.074463	92.972412
798.565674	1787.748413	2281.400879	2243.976807	92.418945
798.874817	1783.619019	2271.808350	2236.771729	92.823151
799.183960	1780.306641	2263.377197	2225.738037	92.208351
799.493103	1774.843628	2252.300537	2213.435547	91.860001
799.802124	1768.068481	2240.364014	2203.563477	92.208153
800.111084	1765.423096	2231.007813	2190.508057	91.301315
800.419983	1757.594238	2220.597900	2178.355957	90.876541
800.728821	1752.002075	2205.671387	2166.526367	91.371468
801.037659	1750.432007	2192.680420	2156.525146	91.824669
801.346436	1747.657471	2185.152588	2150.115967	91.991539
801.655151	1742.603027	2176.721436	2144.308838	92.533699
801.963745	1741.591919	2167.816895	2137.039063	92.778969
802.272400	1741.463013	2161.794678	2128.521729	92.084122
802.580933	1737.268799	2153.707520	2122.542236	92.516235
802.889404	1734.343750	2144.631348	2118.778320	93.698807
803.197815	1729.095825	2138.264893	2112.046631	93.592316
803.506226	1725.095581	2133.769775	2108.024658	93.700333
803.814575	1721.826294	2127.876465	2104.518799	94.247589
804.122864	1719.697144	2125.983643	2102.411133	94.198059
804.431030	1715.395386	2124.499756	2099.184814	93.812103
804.739197	1712.749878	2121.488525	2093.936768	93.259323
805.047241	1713.330566	2120.800293	2094.044189	93.433594
805.355408	1710.276489	2122.757568	2093.614258	92.934631
805.663391	1708.082764	2125.682617	2096.388672	92.985161
805.971313	1711.201294	2130.242432	2098.582275	92.444618
806.279175	1714.319946	2137.211182	2096.023193	90.260384
806.587036	1716.363281	2140.802979	2098.690186	90.078026
806.894836	1720.126953	2140.845947	2098.238525	89.872711
807.202576	1724.278198	2142.029053	2099.034424	89.708069
807.510193	1724.471802	2142.308350	2098.883789	89.607285
807.817810	1725.396484	2135.447266	2099.679443	91.277222
808.125427	1725.224487	2131.231934	2097.528809	91.698891
808.432922	1721.933594	2127.898193	2090.474365	90.781502
808.740295	1718.040649	2119.531494	2085.183350	91.444847
809.047729	1717.632080	2107.551270	2078.150146	92.459686
809.355103	1711.997192	2094.883057	2068.256348	93.045784
809.662415	1704.103516	2085.247559	2060.857666	93.600876
809.969604	1702.103394	2072.256836	2052.211182	94.584503
810.276794	1697.048950	2061.631836	2046.038330	95.722916
810.583923	1689.972778	2053.394043	2037.650391	95.667931
810.890991	1685.821777	2045.887817	2027.175781	94.803169
811.197998	1681.670654	2042.532715	2018.551147	93.354370
811.505005	1678.207886	2036.574951	2013.432373	93.542213
811.811829	1677.541138	2028.573853	2007.022949	93.860710
812.118713	1675.046387	2022.917236	1999.193848	93.180405
812.425537	1671.669800	2017.002441	1991.085571	92.495102
812.732300	1667.927246	2014.357056	1981.406982	90.488670
813.038940	1665.281738	2007.947754	1974.588745	90.264862
813.345581	1662.550049	2005.667847	1967.663208	88.923737
813.652100	1659.560425	2000.721069	1960.500854	88.210770
813.958740	1655.753540	1994.419067	1954.328125	88.162086
814.265137	1654.699585	1989.364746	1951.682739	88.740387
814.571533	1651.064941	1985.213745	1946.477661	88.407532
814.877930	1647.687988	1978.890503	1939.121826	87.992638
815.184265	1642.418701	1974.631714	1937.401245	88.793190
815.490540	1640.332397	1971.986206	1935.874146	89.111519
815.796692	1638.417969	1970.760254	1934.691284	89.147041
816.102844	1639.880737	1969.448120	1939.294067	90.850410
816.408936	1640.934326	1967.319092	1941.165283	91.986816
816.714966	1639.321411	1963.705566	1943.681763	93.827133
817.020935	1640.224609	1964.114380	1945.251953	94.176285
817.326843	1644.332764	1969.319214	1951.145020	94.407707
817.632690	1644.784424	1974.051147	1953.446167	93.742165
817.938477	1646.569580	1978.933228	1955.597168	92.978760
818.244263	1651.344482	1986.310547	1961.490356	92.590240
818.549988	1655.624512	1993.666504	1965.749146	91.741455
818.855652	1664.614746	2002.420288	1977.363403	92.582451
819.161194	1673.196533	2017.282349	1991.365234	92.467834
819.466797	1682.531250	2035.585571	2008.076904	92.208374
819.772278	1697.113647	2064.341797	2033.585449	91.624733
820.077698	1716.857910	2098.711670	2062.535156	90.526085
820.383057	1736.817505	2138.243408	2098.152588	90.012894
820.688354	1759.551514	2182.098389	2135.856445	89.056374
820.993652	1794.373047	2239.266846	2190.099365	88.948494
821.298828	1849.239868	2335.816162	2289.466553	90.474342
821.604004	1957.984497	2530.765381	2478.479004	90.871490
821.909058	2141.426758	2852.417969	2786.710693	90.758354
822.214111	2372.982178	3276.234131	3194.718506	90.975319
822.519165	2622.045410	3728.139160	3635.203125	91.597816
822.824036	2852.590088	4134.684570	4035.188232	92.239548
823.128906	3047.818604	4480.727051	4365.594238	91.965096
823.433716	3204.956299	4764.031250	4641.091309	92.114555
823.738525	3333.811035	4996.641113	4868.216309	92.276733
824.043213	3437.909912	5184.965332	5052.625977	92.425003
824.347900	3516.478760	5324.487793	5193.740723	92.768448
824.652466	3560.140381	5400.970703	5267.276855	92.737305
824.957031	3532.158447	5357.825684	5225.185547	92.734703
825.261536	3423.585693	5163.371094	5048.582520	93.402145
825.565979	3249.542725	4848.858887	4745.448242	93.534073
825.870300	3048.249023	4486.792480	4395.684082	93.666618
826.174622	2863.623535	4162.429688	4076.268066	93.366089
826.478821	2716.530029	3907.107666	3834.947754	93.939087
826.783142	2622.389404	3735.882568	3672.756104	94.330772
827.087280	2566.619141	3632.514648	3571.926514	94.315750
827.391357	2532.292236	3564.441406	3508.176514	94.548767
827.695435	2504.052246	3512.069580	3453.890381	94.228355
827.999451	2473.704346	3458.062744	3399.603760	94.061211
828.303406	2449.722900	3408.035156	3352.436768	94.198303
828.607239	2422.622559	3363.277100	3300.796143	93.357712
828.911011	2400.340332	3317.550781	3253.585938	93.026154
829.214844	2377.778320	3273.803711	3209.106934	92.779579
829.518616	2349.990234	3221.087402	3160.778809	93.076706
829.822205	2310.307861	3143.981201	3083.242432	92.714317
830.125793	2246.235352	3029.880615	2968.496826	92.166893
830.429382	2162.999268	2886.852539	2827.618896	91.816902
830.732849	2077.978027	2735.048584	2680.977295	91.770859
831.036316	1998.312134	2597.225098	2544.745117	91.237465
831.339661	1931.916870	2478.156494	2434.301758	91.971519
831.642944	1874.963379	2376.767822	2335.730469	91.822044
831.946228	1826.355347	2293.552979	2257.075439	92.192268
832.249512	1789.210938	2229.093506	2193.282471	91.858955
832.552673	1762.218384	2179.517334	2144.824951	91.686447
832.855774	1744.603394	2150.331055	2113.788818	90.993408
833.158813	1744.388306	2141.878418	2110.799072	92.181099
833.461731	1761.465576	2169.150635	2136.781006	92.060135
833.764771	1792.566284	2216.683350	2183.109131	92.083740
834.067627	1828.678223	2274.453857	2238.083740	91.841164
834.370422	1863.521118	2330.224365	2294.563721	92.359032
834.673157	1895.202637	2384.897461	2344.763428	91.804276
834.975891	1919.463745	2426.300781	2387.973389	92.437927
835.278564	1941.595581	2461.617188	2421.891602	92.360779
835.581177	1955.188599	2485.383301	2448.217529	92.990166
835.883728	1963.296997	2501.449951	2461.767334	92.626144
836.186218	1962.845337	2501.858398	2461.832031	92.574135
836.488647	1949.682495	2482.694580	2439.872314	91.965988
836.791077	1918.388184	2430.537598	2388.618652	91.815094
837.093384	1879.953247	2358.593506	2322.266602	92.410393
837.395630	1831.882813	2283.444336	2247.568604	92.055183
837.697815	1787.984863	2209.714844	2175.473633	91.880775
838.000061	1746.109009	2140.351318	2107.271729	91.609322
838.302124	1713.395020	2077.698242	2044.748047	90.955284
838.604126	1681.778198	2021.906372	1988.375488	90.141693
838.906128	1653.387817	1971.297974	1940.864380	90.426979
839.208069	1629.255737	1927.894653	1900.536621	90.839096
839.510010	1614.049316	1895.783325	1867.908691	90.106049
839.811829	1602.564087	1873.436401	1846.852417	90.185791
840.113586	1595.337402	1860.596191	1838.765259	91.769951
840.415222	1589.250732	1854.724487	1831.108643	91.104263
840.716919	1588.153809	1848.680786	1825.279785	91.017822
841.018555	1584.669434	1844.207153	1819.924316	90.643814
841.320068	1587.228882	1840.270996	1815.708984	90.293312
841.621521	1584.884399	1839.905151	1815.644409	90.486755
841.922974	1584.669434	1837.496582	1816.052856	91.518425
842.224365	1581.486328	1836.507080	1809.665161	89.474617
842.525635	1580.367920	1829.796509	1802.717896	89.143738
842.826965	1575.205933	1815.300049	1790.996094	89.877319
843.128174	1562.042969	1796.114868	1774.026245	90.563316
843.429260	1550.062988	1774.564087	1749.184326	88.695038
843.730408	1537.050659	1751.808472	1724.816040	87.431221
844.031433	1523.134888	1728.859375	1703.673462	87.757454
844.332397	1514.166016	1708.362183	1687.176880	89.090775
844.633362	1501.132324	1689.413574	1668.873413	89.090706
844.934204	1490.485840	1670.378906	1649.688232	88.498352
845.235046	1481.495483	1652.462891	1631.040894	87.470131
845.535828	1475.924927	1636.116699	1620.695435	90.373245
845.836487	1466.848511	1625.061401	1607.726196	89.043114
846.137146	1458.696899	1616.716431	1596.047241	86.919853
846.437744	1452.437988	1608.263672	1583.400513	84.044250
846.738281	1447.577026	1599.789551	1576.130737	84.456726
847.038757	1441.984985	1591.508911	1569.828857	85.500610
847.339172	1438.350098	1582.497192	1564.430420	87.466431
847.639526	1433.231323	1576.689819	1557.440308	86.581825
847.939819	1429.703979	1571.979614	1553.310913	86.878494
848.240112	1428.284424	1570.302002	1550.407104	85.991241
848.540283	1425.251831	1569.205078	1548.492920	85.611885
848.840393	1424.499146	1570.624512	1546.083984	83.205841
849.140564	1420.412598	1567.936035	1544.535522	84.137764
849.440552	1419.036011	1564.043091	1543.739746	85.998375
849.740540	1419.294189	1560.580444	1543.503052	87.912910
850.040405	1416.863770	1562.344116	1539.782104	84.491371
850.340210	1417.358398	1559.139526	1537.738770	84.905777
850.640137	1417.380005	1556.988403	1534.017944	83.546509
850.939819	1416.024902	1553.869873	1532.770630	84.693497
851.239502	1417.530518	1549.202759	1530.082153	85.478638
851.539185	1414.885132	1545.438721	1527.651611	86.375626
851.838745	1414.863403	1543.890259	1523.436035	84.147316
852.138245	1411.314575	1536.190308	1516.811401	84.481445
852.437744	1412.045898	1532.598511	1511.047363	82.123039
852.737122	1410.927490	1528.555054	1506.681152	81.404099
853.036499	1408.970215	1525.651489	1504.100342	81.529900
853.335815	1410.669434	1518.682861	1503.455078	85.901955
853.635010	1409.443481	1517.478394	1502.143066	85.805214
853.934204	1408.518677	1517.736328	1500.013672	83.773087
854.233276	1407.077637	1515.478149	1496.271362	82.281647
854.532410	1403.206177	1514.230591	1494.980835	82.661690
854.831482	1400.990723	1513.628418	1493.625854	82.241676
855.130371	1398.237671	1508.208252	1491.711792	84.999207
855.429260	1398.581909	1509.326660	1492.185059	84.521523
855.728088	1397.248413	1509.455933	1491.518066	84.013672
856.026855	1395.957886	1508.681641	1492.313965	85.479836
856.325623	1396.495728	1506.917847	1492.163574	86.638298
856.624329	1393.054443	1508.487915	1489.754395	83.771156
856.922913	1392.538208	1505.713379	1487.539185	83.941536
857.221436	1389.935669	1502.487183	1486.506714	85.801643
857.519958	1390.796021	1502.250488	1485.538940	85.005943
857.818420	1394.280151	1502.659302	1484.226929	82.992691
858.116821	1395.871826	1501.046143	1480.699585	80.654442
858.415161	1396.108398	1502.444214	1480.785645	79.631912
858.713379	1397.656982	1498.357544	1481.603027	83.362045
859.011658	1397.592529	1495.496948	1481.323364	85.523041
859.309814	1397.162231	1494.722778	1478.355225	83.223183
859.607910	1396.087036	1493.776489	1473.429810	79.172081
859.905945	1396.065430	1491.152344	1470.999512	78.805885
860.203979	1394.774902	1491.647217	1469.343384	76.976051
860.501953	1395.377197	1493.131226	1469.386475	75.709694
860.799744	1395.162231	1489.001709	1469.063843	78.753220
861.097656	1392.258667	1487.668091	1465.988159	77.276947
861.395325	1388.752808	1486.291626	1468.052979	81.301140
861.693115	1386.924561	1484.721558	1467.235596	82.120148
861.990784	1384.214478	1486.678833	1464.826782	78.673508
862.288330	1384.515747	1485.603394	1465.945190	80.553307
862.585815	1382.988525	1484.850708	1464.654663	80.173164
862.883301	1381.461670	1483.237427	1466.805420	83.854698
863.180786	1379.676270	1482.119141	1468.031372	86.248169
863.478149	1379.052612	1479.710083	1468.267944	88.632599
863.775452	1380.816284	1477.000122	1466.934448	89.534966
864.072693	1380.063599	1478.957520	1465.041748	85.928589
864.369873	1378.385864	1477.236816	1466.117065	88.750992
864.667114	1382.278931	1478.011108	1463.622192	84.969612
864.964111	1385.526611	1479.495239	1466.353760	86.015038
865.261169	1385.741821	1477.559448	1466.719360	88.193893
865.558105	1386.085815	1478.484253	1466.783936	87.337105
865.855042	1386.623535	1479.710327	1465.751465	85.004463
866.151917	1386.558960	1479.387695	1467.429199	87.117676
866.448730	1387.311646	1479.215698	1464.224487	83.688194
866.745422	1388.300903	1479.581177	1464.482422	83.458908
867.042114	1384.881226	1478.871582	1462.675781	82.768654
867.338806	1383.504639	1476.828247	1465.235229	87.577614
867.635376	1384.429565	1473.279419	1462.568237	87.944626
867.931824	1381.697998	1470.418823	1460.869141	89.236259
868.228271	1377.482544	1468.289551	1455.771851	86.215050
868.524658	1376.987793	1467.644287	1455.148193	86.215996
868.821045	1375.654297	1464.762207	1452.158447	85.855621
869.117310	1372.944336	1463.235229	1452.524292	88.137299
869.413574	1373.718628	1464.590088	1444.845825	78.272316
869.709717	1373.309937	1463.858887	1445.684692	79.928871
870.005859	1372.535645	1463.321167	1443.985474	78.701790
870.301880	1374.751099	1464.073975	1444.372559	77.943596
870.597900	1373.482178	1465.471924	1443.641357	76.268478
870.893860	1372.944458	1469.988647	1445.168457	74.423828
871.189636	1372.858521	1471.795288	1447.684814	75.630424
871.485535	1375.181274	1473.128784	1449.448364	75.823357
871.781311	1373.159546	1473.838379	1448.975220	75.304482
872.077026	1372.944336	1476.053711	1449.663574	74.405685
872.372681	1373.116333	1476.914063	1452.223022	76.212349
872.668274	1372.557129	1475.623535	1457.535400	82.450020
872.963806	1373.180908	1475.322388	1461.880005	86.839447
873.259338	1372.987305	1476.806519	1464.826660	88.460846
873.554688	1371.202026	1477.107666	1464.095459	87.713394
873.850098	1372.965698	1475.989258	1463.299683	87.682838
874.145447	1374.170166	1474.548218	1464.869751	90.357986
874.440674	1374.815430	1472.956665	1463.536255	90.401169
874.735840	1375.740356	1470.762817	1460.761597	89.474884
875.031006	1375.310181	1471.816772	1460.116455	87.876144
875.326050	1376.858887	1473.322266	1461.643433	87.892990
875.621094	1378.493530	1472.999756	1460.353027	86.618103
875.916077	1378.041870	1472.397461	1459.471191	86.300476
876.210999	1377.955688	1474.505249	1455.900879	80.730759
876.505798	1377.288940	1473.386719	1455.707153	81.602524
876.800598	1377.891113	1472.096313	1458.783081	85.867836
877.095337	1378.450317	1474.225586	1457.750488	82.798172
877.390015	1380.256958	1476.441040	1458.718384	81.574234
877.684692	1383.956421	1477.709961	1459.686279	80.775467
877.979187	1384.063965	1475.107544	1461.621948	85.187759
878.273804	1385.999634	1474.612793	1462.525269	86.359222
878.568237	1385.462036	1472.074829	1462.761841	89.247559
878.862610	1389.720703	1475.301147	1465.428833	88.464287
879.156921	1391.548828	1481.366455	1469.623047	86.925278
879.451172	1393.570557	1484.979614	1475.408691	89.529572
879.745422	1397.377441	1492.400024	1481.430908	88.456306
880.039612	1404.453613	1503.562622	1487.560669	83.854187
880.333679	1414.175293	1517.392212	1502.014160	85.101227
880.627686	1426.692871	1541.588989	1519.994873	81.205528
880.921692	1448.071899	1581.056152	1555.719849	80.947891
881.215698	1485.151855	1648.505371	1613.834473	78.775543
881.509460	1540.857544	1743.699951	1705.888794	81.359344
881.803345	1615.834473	1867.951904	1826.204712	83.441368
882.097046	1697.027344	2007.667969	1962.673462	85.515579
882.390808	1781.962769	2147.577881	2100.389404	87.093399
882.684448	1864.316895	2284.390625	2229.222412	86.867020
882.978027	1938.240112	2405.029053	2349.753662	88.158379
883.271545	2002.420044	2512.375732	2455.271973	88.802208
883.565002	2054.275879	2604.021729	2544.659668	89.201912
883.858398	2095.011963	2674.782959	2617.572021	90.132149
884.151733	2119.531494	2717.541016	2664.545410	91.138000
884.445068	2122.865479	2726.273438	2675.880127	91.648552
884.738281	2102.690674	2690.333740	2640.757568	91.563560
885.031433	2051.652100	2612.775635	2565.673096	91.605675
885.324585	1987.816040	2503.751221	2460.885742	91.691696
885.617676	1917.505981	2386.231201	2343.623779	90.909935
885.910645	1845.475830	2264.646240	2232.642334	92.364944
886.203552	1777.919189	2154.202393	2121.596191	91.334663
886.496521	1716.234253	2049.866943	2022.401123	91.767647
886.789368	1661.582153	1953.898071	1931.400513	92.303680
887.082153	1610.737183	1865.629028	1848.164551	93.148277
887.374817	1567.570679	1788.802368	1775.037109	93.777901
887.667480	1530.146606	1719.998047	1711.201172	95.366440
887.960083	1495.884277	1663.797607	1659.582031	97.489433
888.252625	1474.569824	1620.888794	1617.619873	97.765892
888.545166	1457.858154	1588.239746	1585.164063	97.641014
888.837524	1442.092651	1563.978638	1561.204224	97.723763
889.129883	1430.650513	1542.836304	1538.728149	96.338081
889.422241	1421.100952	1526.576172	1521.134766	94.841057
889.714478	1416.218750	1510.144165	1508.488037	98.236763
890.006714	1430.177124	1493.819580	1477.731445	74.721069
890.298767	1380.493774	1503.756104	1459.987183	64.491241
890.590881	1384.515625	1464.009399	1461.406860	96.726112
890.882935	1380.020264	1486.011963	1452.653076	68.526886
>>>>>End Processed Spectral Data<<<<<
